IstTemp[K]=293.00

 800.000,4.454E-10
 800.350,4.206E-10
 800.700,1.732E-10
 801.050,2.222E-10
 801.400,2.469E-10
 801.750,2.715E-10
 802.100,3.209E-10
 802.450,2.709E-10
 802.800,2.463E-10
 803.150,3.448E-10
 803.500,3.440E-10
 803.850,4.177E-10
 804.200,4.915E-10
 804.550,3.194E-10
 804.900,3.677E-10
 805.250,3.677E-10
 805.600,1.471E-10
 805.950,2.201E-10
 806.300,3.669E-10
 806.650,3.424E-10
 807.000,0.000E+00
 807.350,3.172E-10
 807.700,1.708E-10
 808.050,1.220E-10
 808.400,3.661E-10
 808.750,1.217E-10
 809.100,3.165E-10
 809.450,2.678E-10
 809.800,1.943E-10
 810.150,4.615E-10
 810.500,4.372E-10
 810.850,3.644E-10
 811.200,2.424E-10
 811.550,2.666E-10
 811.900,3.393E-10
 812.250,2.908E-10
 812.600,4.836E-10
 812.950,2.660E-10
 813.300,9.672E-11
 813.650,1.451E-10
 814.000,4.101E-10
 814.350,3.377E-10
 814.700,3.860E-10
 815.050,3.619E-10
 815.400,4.092E-10
 815.750,1.685E-10
 816.100,1.926E-10
 816.450,4.092E-10
 816.800,5.295E-10
 817.150,3.122E-10
 817.500,3.842E-10
 817.850,3.842E-10
 818.200,2.641E-10
 818.550,5.510E-10
 818.900,3.833E-10
 819.250,3.115E-10
 819.600,3.594E-10
 819.950,1.434E-10
 820.300,4.770E-11
 820.650,2.385E-10
 821.000,5.235E-10
 821.350,3.093E-10
 821.700,1.899E-10
 822.050,4.974E-10
 822.400,3.789E-10
 822.750,1.890E-10
 823.100,3.301E-10
 823.450,3.065E-10
 823.800,4.469E-10
 824.150,2.581E-10
 824.500,3.755E-10
 824.850,5.385E-10
 825.200,2.107E-10
 825.550,4.672E-10
 825.900,4.661E-10
 826.250,4.428E-10
 826.600,4.185E-10
 826.950,3.480E-10
 827.300,2.784E-10
 827.650,2.777E-10
 828.000,4.398E-10
 828.350,3.926E-10
 828.700,3.917E-10
 829.050,2.534E-10
 829.400,2.988E-10
 829.750,4.357E-10
 830.100,2.288E-10
 830.450,5.250E-10
 830.800,3.863E-10
 831.150,3.854E-10
 831.500,2.940E-10
 831.850,4.053E-10
 832.200,4.043E-10
 832.550,4.706E-10
 832.900,3.569E-10
 833.250,4.896E-10
 833.600,4.219E-10
 833.950,3.979E-10
 834.300,2.646E-10
 834.650,2.860E-10
 835.000,2.628E-10
 835.350,4.370E-10
 835.700,5.232E-10
 836.050,2.604E-10
 836.400,4.546E-10
 836.750,2.808E-10
 837.100,4.300E-10
 837.450,2.789E-10
 837.800,4.066E-10
 838.150,2.130E-10
 838.500,3.826E-10
 838.850,3.817E-10
 839.200,3.166E-10
 839.550,2.106E-10
 839.900,2.521E-10
 840.250,4.412E-10
 840.600,3.572E-10
 840.950,4.202E-10
 841.300,3.782E-10
 841.650,2.527E-10
 842.000,2.948E-10
 842.350,4.844E-10
 842.700,3.580E-10
 843.050,3.588E-10
 843.400,5.066E-10
 843.750,4.855E-10
 844.100,5.066E-10
 844.450,3.377E-10
 844.800,3.597E-10
 845.150,5.712E-10
 845.500,3.597E-10
 845.850,2.962E-10
 846.200,4.020E-10
 846.550,4.665E-10
 846.900,5.301E-10
 847.250,3.393E-10
 847.600,3.817E-10
 847.950,5.726E-10
 848.300,3.613E-10
 848.650,4.676E-10
 849.000,3.613E-10
 849.350,6.376E-10
 849.700,5.539E-10
 850.050,3.835E-10
 850.400,5.125E-10
 850.750,4.698E-10
 851.100,3.852E-10
 851.450,4.719E-10
 851.800,5.148E-10
 852.150,5.805E-10
 852.500,3.225E-10
 852.850,5.819E-10
 853.200,4.957E-10
 853.550,4.968E-10
 853.900,5.629E-10
 854.250,4.763E-10
 854.600,5.208E-10
 854.950,5.859E-10
 855.300,4.785E-10
 855.650,5.450E-10
 856.000,6.104E-10
 856.350,5.026E-10
 856.700,6.992E-10
 857.050,7.227E-10
 857.400,5.049E-10
 857.750,4.390E-10
 858.100,5.940E-10
 858.450,6.601E-10
 858.800,5.734E-10
 859.150,6.410E-10
 859.500,5.084E-10
 859.850,5.760E-10
 860.200,4.652E-10
 860.550,6.662E-10
 860.900,5.342E-10
 861.250,5.342E-10
 861.600,5.354E-10
 861.950,6.484E-10
 862.300,5.813E-10
 862.650,7.620E-10
 863.000,7.862E-10
 863.350,9.210E-10
 863.700,8.781E-10
 864.050,1.083E-09
 864.400,6.770E-10
 864.750,8.821E-10
 865.100,9.068E-10
 865.450,8.388E-10
 865.800,7.726E-10
 866.150,8.199E-10
 866.500,9.110E-10
 866.850,1.210E-09
 867.200,9.381E-10
 867.550,1.007E-09
 867.900,1.170E-09
 868.250,9.654E-10
 868.600,1.057E-09
 868.950,1.175E-09
 869.300,1.085E-09
 869.650,1.085E-09
 870.000,1.389E-09
 870.350,1.253E-09
 870.700,1.189E-09
 871.050,1.542E-09
 871.400,1.686E-09
 871.750,1.525E-09
 872.100,1.694E-09
 872.450,1.745E-09
 872.800,1.701E-09
 873.150,1.847E-09
 873.500,1.828E-09
 873.850,2.046E-09
 874.200,2.361E-09
 874.550,2.175E-09
 874.900,2.564E-09
 875.250,2.257E-09
 875.600,2.696E-09
 875.950,2.702E-09
 876.300,2.805E-09
 876.650,2.981E-09
 877.000,3.085E-09
 877.350,3.214E-09
 877.700,3.327E-09
 878.050,3.359E-09
 878.400,3.833E-09
 878.750,3.768E-09
 879.100,4.049E-09
 879.450,4.157E-09
 879.800,4.390E-09
 880.150,4.340E-09
 880.500,5.021E-09
 880.850,5.058E-09
 881.200,5.269E-09
 881.550,5.694E-09
 881.900,5.932E-09
 882.250,6.473E-09
 882.600,6.613E-09
 882.950,6.915E-09
 883.300,7.309E-09
 883.650,7.604E-09
 884.000,8.077E-09
 884.350,8.431E-09
 884.700,9.009E-09
 885.050,9.437E-09
 885.400,9.918E-09
 885.750,1.048E-08
 886.100,1.106E-08
 886.450,1.168E-08
 886.800,1.240E-08
 887.150,1.281E-08
 887.500,1.353E-08
 887.850,1.411E-08
 888.200,1.486E-08
 888.550,1.577E-08
 888.900,1.663E-08
 889.250,1.740E-08
 889.600,1.854E-08
 889.950,1.968E-08
 890.300,2.043E-08
 890.650,2.147E-08
 891.000,2.254E-08
 891.350,2.330E-08
 891.700,2.462E-08
 892.050,2.598E-08
 892.400,2.702E-08
 892.750,2.819E-08
 893.100,2.941E-08
 893.450,3.045E-08
 893.800,3.196E-08
 894.150,3.306E-08
 894.500,3.425E-08
 894.850,3.589E-08
 895.200,3.727E-08
 895.550,3.885E-08
 895.900,4.015E-08
 896.250,4.160E-08
 896.600,4.345E-08
 896.950,4.513E-08
 897.300,4.661E-08
 897.650,4.893E-08
 898.000,5.004E-08
 898.350,5.308E-08
 898.700,5.498E-08
 899.050,5.726E-08
 899.400,5.944E-08
 899.750,6.179E-08
 900.100,6.426E-08
 900.450,6.656E-08
 900.800,6.875E-08
 901.150,7.147E-08
 901.500,7.476E-08
 901.850,7.738E-08
 902.200,8.002E-08
 902.550,8.347E-08
 902.900,8.677E-08
 903.250,9.018E-08
 903.600,9.348E-08
 903.950,9.689E-08
 904.300,9.957E-08
 904.650,1.036E-07
 905.000,1.081E-07
 905.350,1.118E-07
 905.700,1.159E-07
 906.050,1.196E-07
 906.400,1.255E-07
 906.750,1.312E-07
 907.100,1.376E-07
 907.450,1.439E-07
 907.800,1.494E-07
 908.150,1.564E-07
 908.500,1.641E-07
 908.850,1.716E-07
 909.200,1.787E-07
 909.550,1.864E-07
 909.900,1.954E-07
 910.250,2.037E-07
 910.600,2.138E-07
 910.950,2.250E-07
 911.300,2.359E-07
 911.650,2.456E-07
 912.000,2.584E-07
 912.350,2.720E-07
 912.700,2.842E-07
 913.050,2.988E-07
 913.400,3.127E-07
 913.750,3.289E-07
 914.100,3.454E-07
 914.450,3.661E-07
 914.800,3.809E-07
 915.150,3.989E-07
 915.500,4.218E-07
 915.850,4.471E-07
 916.200,4.706E-07
 916.550,4.944E-07
 916.900,5.177E-07
 917.250,5.471E-07
 917.600,5.747E-07
 917.950,6.037E-07
 918.300,6.332E-07
 918.650,6.612E-07
 919.000,6.906E-07
 919.350,7.216E-07
 919.700,7.451E-07
 920.050,7.711E-07
 920.400,7.958E-07
 920.750,8.171E-07
 921.100,8.341E-07
 921.450,8.524E-07
 921.800,8.738E-07
 922.150,8.941E-07
 922.500,9.147E-07
 922.850,9.317E-07
 923.200,9.474E-07
 923.550,9.620E-07
 923.900,9.788E-07
 924.250,9.874E-07
 924.600,9.972E-07
 924.950,1.012E-06
 925.300,1.024E-06
 925.650,1.039E-06
 926.000,1.046E-06
 926.350,1.055E-06
 926.700,1.061E-06
 927.050,1.073E-06
 927.400,1.085E-06
 927.750,1.094E-06
 928.100,1.096E-06
 928.450,1.103E-06
 928.800,1.107E-06
 929.150,1.116E-06
 929.500,1.124E-06
 929.850,1.137E-06
 930.200,1.153E-06
 930.550,1.152E-06
 930.900,1.166E-06
 931.250,1.179E-06
 931.600,1.185E-06
 931.950,1.200E-06
 932.300,1.211E-06
 932.650,1.232E-06
 933.000,1.245E-06
 933.350,1.260E-06
 933.700,1.268E-06
 934.050,1.284E-06
 934.400,1.301E-06
 934.750,1.326E-06
 935.100,1.345E-06
 935.450,1.362E-06
 935.800,1.386E-06
 936.150,1.396E-06
 936.500,1.419E-06
 936.850,1.433E-06
 937.200,1.449E-06
 937.550,1.465E-06
 937.900,1.481E-06
 938.250,1.497E-06
 938.600,1.523E-06
 938.950,1.556E-06
 939.300,1.599E-06
 939.650,1.646E-06
 940.000,1.665E-06
 940.350,1.727E-06
 940.700,1.759E-06
 941.050,1.790E-06
 941.400,1.821E-06
 941.750,1.850E-06
 942.100,1.881E-06
 942.450,1.914E-06
 942.800,1.939E-06
 943.150,1.973E-06
 943.500,2.013E-06
 943.850,2.060E-06
 944.200,2.103E-06
 944.550,2.137E-06
 944.900,2.179E-06
 945.250,2.211E-06
 945.600,2.242E-06
 945.950,2.270E-06
 946.300,2.302E-06
 946.650,2.323E-06
 947.000,2.361E-06
 947.350,2.397E-06
 947.700,2.434E-06
 948.050,2.465E-06
 948.400,2.502E-06
 948.750,2.546E-06
 949.100,2.597E-06
 949.450,2.645E-06
 949.800,2.701E-06
 950.150,2.751E-06
 950.500,2.828E-06
 950.850,2.882E-06
 951.200,2.955E-06
 951.550,2.994E-06
 951.900,3.061E-06
 952.250,3.124E-06
 952.600,3.199E-06
 952.950,3.284E-06
 953.300,3.358E-06
 953.650,3.451E-06
 954.000,3.537E-06
 954.350,3.642E-06
 954.700,3.727E-06
 955.050,3.769E-06
 955.400,3.841E-06
 955.750,3.940E-06
 956.100,4.012E-06
 956.450,4.120E-06
 956.800,4.221E-06
 957.150,4.375E-06
 957.500,4.477E-06
 957.850,4.586E-06
 958.200,4.670E-06
 958.550,4.772E-06
 958.900,4.888E-06
 959.250,5.000E-06
 959.600,5.141E-06
 959.950,5.263E-06
 960.300,5.423E-06
 960.650,5.502E-06
 961.000,5.658E-06
 961.350,6.399E-06
 961.700,7.058E-06
 962.050,7.768E-06
 962.400,9.627E-06
 962.750,1.120E-05
 963.100,1.206E-05
 963.450,1.357E-05
 963.800,1.197E-05
 964.150,1.169E-05
 964.500,1.081E-05
 964.850,1.170E-05
 965.200,1.489E-05
 965.550,1.657E-05
 965.900,1.592E-05
 966.250,1.183E-05
 966.600,9.821E-06
 966.950,8.892E-06
 967.300,9.045E-06
 967.650,9.178E-06
 968.000,9.377E-06
 968.350,9.670E-06
 968.700,9.840E-06
 969.050,1.004E-05
 969.400,1.021E-05
 969.750,1.041E-05
 970.100,1.069E-05
 970.450,1.084E-05
 970.800,1.115E-05
 971.150,1.145E-05
 971.500,1.166E-05
 971.850,1.208E-05
 972.200,1.230E-05
 972.550,1.253E-05
 972.900,1.272E-05
 973.250,1.302E-05
 973.600,1.343E-05
 973.950,1.387E-05
 974.300,1.444E-05
 974.650,1.481E-05
 975.000,1.528E-05
 975.350,1.586E-05
 975.700,1.646E-05
 976.050,1.707E-05
 976.400,1.764E-05
 976.750,1.825E-05
 977.100,1.896E-05
 977.450,1.971E-05
 977.800,2.048E-05
 978.150,2.090E-05
 978.500,2.156E-05
 978.850,2.210E-05
 979.200,2.271E-05
 979.550,2.314E-05
 979.900,2.328E-05
 980.250,2.355E-05
 980.600,2.367E-05
 980.950,2.346E-05
 981.300,2.329E-05
 981.650,2.304E-05
 982.000,2.290E-05
 982.350,2.244E-05
 982.700,2.228E-05
 983.050,2.204E-05
 983.400,2.192E-05
 983.750,2.191E-05
 984.100,2.175E-05
 984.450,2.126E-05
 984.800,2.107E-05
 985.150,2.090E-05
 985.500,2.081E-05
 985.850,2.063E-05
 986.200,2.081E-05
 986.550,2.046E-05
 986.900,2.041E-05
 987.250,2.019E-05
 987.600,2.015E-05
 987.950,1.997E-05
 988.300,2.016E-05
 988.650,1.988E-05
 989.000,1.983E-05
 989.350,1.986E-05
 989.700,1.971E-05
 990.050,1.942E-05
 990.400,1.925E-05
 990.750,1.898E-05
 991.100,1.869E-05
 991.450,1.839E-05
 991.800,1.807E-05
 992.150,1.773E-05
 992.500,1.744E-05
 992.850,1.727E-05
 993.200,1.699E-05
 993.550,1.673E-05
 993.900,1.658E-05
 994.250,1.646E-05
 994.600,1.621E-05
 994.950,1.610E-05
 995.300,1.596E-05
 995.650,1.572E-05
 996.000,1.552E-05
 996.350,1.546E-05
 996.700,1.522E-05
 997.050,1.500E-05
 997.400,1.490E-05
 997.750,1.476E-05
 998.100,1.444E-05
 998.450,1.426E-05
 998.800,1.422E-05
 999.150,1.407E-05
 999.500,1.390E-05
 999.850,1.373E-05
1000.200,1.384E-05
1000.550,1.384E-05
1000.900,1.361E-05
1001.250,1.368E-05
1001.600,1.355E-05
1001.950,1.360E-05
1002.300,1.363E-05
1002.650,1.349E-05
1003.000,1.323E-05
1003.350,1.326E-05
1003.700,1.320E-05
1004.050,1.309E-05
1004.400,1.304E-05
1004.750,1.304E-05
1005.100,1.301E-05
1005.450,1.307E-05
1005.800,1.316E-05
1006.150,1.326E-05
1006.500,1.332E-05
1006.850,1.348E-05
1007.200,1.355E-05
1007.550,1.357E-05
1007.900,1.353E-05
1008.250,1.355E-05
1008.600,1.339E-05
1008.950,1.340E-05
1009.300,1.333E-05
1009.650,1.339E-05
1010.000,1.349E-05
1010.350,1.359E-05
1010.700,1.375E-05
1011.050,1.380E-05
1011.400,1.391E-05
1011.750,1.400E-05
1012.100,1.403E-05
1012.450,1.406E-05
1012.800,1.405E-05
1013.150,1.406E-05
1013.500,1.399E-05
1013.850,1.406E-05
1014.200,1.416E-05
1014.550,1.402E-05
1014.900,1.399E-05
1015.250,1.407E-05
1015.600,1.390E-05
1015.950,1.381E-05
1016.300,1.380E-05
1016.650,1.384E-05
1017.000,1.374E-05
1017.350,1.374E-05
1017.700,1.356E-05
1018.050,1.356E-05
1018.400,1.346E-05
1018.750,1.337E-05
1019.100,1.330E-05
1019.450,1.318E-05
1019.800,1.319E-05
1020.150,1.310E-05
1020.500,1.304E-05
1020.850,1.293E-05
1021.200,1.284E-05
1021.550,1.274E-05
1021.900,1.265E-05
1022.250,1.255E-05
1022.600,1.258E-05
1022.950,1.259E-05
1023.300,1.268E-05
1023.650,1.268E-05
1024.000,1.263E-05
1024.350,1.257E-05
1024.700,1.240E-05
1025.050,1.241E-05
1025.400,1.234E-05
1025.750,1.222E-05
1026.100,1.218E-05
1026.450,1.214E-05
1026.800,1.217E-05
1027.150,1.218E-05
1027.500,1.220E-05
1027.850,1.229E-05
1028.200,1.245E-05
1028.550,1.251E-05
1028.900,1.247E-05
1029.250,1.248E-05
1029.600,1.239E-05
1029.950,1.237E-05
1030.300,1.238E-05
1030.650,1.229E-05
1031.000,1.217E-05
1031.350,1.215E-05
1031.700,1.208E-05
1032.050,1.201E-05
1032.400,1.196E-05
1032.750,1.190E-05
1033.100,1.177E-05
1033.450,1.172E-05
1033.800,1.168E-05
1034.150,1.166E-05
1034.500,1.150E-05
1034.850,1.141E-05
1035.200,1.111E-05
1035.550,1.101E-05
1035.900,1.089E-05
1036.250,1.078E-05
1036.600,1.056E-05
1036.950,1.053E-05
1037.300,1.037E-05
1037.650,1.024E-05
1038.000,1.015E-05
1038.350,1.002E-05
1038.700,9.903E-06
1039.050,9.822E-06
1039.400,9.824E-06
1039.750,9.686E-06
1040.100,9.520E-06
1040.450,9.466E-06
1040.800,9.242E-06
1041.150,9.169E-06
1041.500,9.136E-06
1041.850,9.107E-06
1042.200,9.066E-06
1042.550,9.079E-06
1042.900,8.934E-06
1043.250,8.880E-06
1043.600,9.016E-06
1043.950,8.934E-06
1044.300,8.926E-06
1044.650,8.902E-06
1045.000,8.951E-06
1045.350,8.908E-06
1045.700,8.862E-06
1046.050,8.720E-06
1046.400,8.726E-06
1046.750,8.609E-06
1047.100,8.533E-06
1047.450,8.491E-06
1047.800,8.415E-06
1048.150,8.346E-06
1048.500,8.341E-06
1048.850,8.233E-06
1049.200,8.110E-06
1049.550,8.074E-06
1049.900,7.966E-06
1050.250,7.788E-06
1050.600,7.721E-06
1050.950,7.612E-06
1051.300,7.552E-06
1051.650,7.417E-06
1052.000,7.268E-06
1052.350,7.145E-06
1052.700,7.068E-06
1053.050,6.921E-06
1053.400,6.747E-06
1053.750,6.649E-06
1054.100,6.464E-06
1054.450,6.326E-06
1054.800,6.251E-06
1055.150,6.125E-06
1055.500,5.955E-06
1055.850,5.872E-06
1056.200,5.736E-06
1056.550,5.623E-06
1056.900,5.470E-06
1057.250,5.342E-06
1057.600,5.200E-06
1057.950,5.080E-06
1058.300,4.928E-06
1058.650,4.820E-06
1059.000,4.722E-06
1059.350,4.635E-06
1059.700,4.560E-06
1060.050,4.452E-06
1060.400,4.345E-06
1060.750,4.265E-06
1061.100,4.155E-06
1061.450,4.040E-06
1061.800,3.912E-06
1062.150,3.822E-06
1062.500,3.726E-06
1062.850,3.640E-06
1063.200,3.557E-06
1063.550,3.499E-06
1063.900,3.442E-06
1064.250,3.372E-06
1064.600,3.309E-06
1064.950,3.250E-06
1065.300,3.169E-06
1065.650,3.123E-06
1066.000,3.041E-06
1066.350,2.967E-06
1066.700,2.927E-06
1067.050,2.883E-06
1067.400,2.805E-06
1067.750,2.744E-06
1068.100,2.685E-06
1068.450,2.604E-06
1068.800,2.558E-06
1069.150,2.498E-06
1069.500,2.447E-06
1069.850,2.398E-06
1070.200,2.338E-06
1070.550,2.303E-06
1070.900,2.262E-06
1071.250,2.210E-06
1071.600,2.166E-06
1071.950,2.111E-06
1072.300,2.067E-06
1072.650,2.023E-06
1073.000,1.982E-06
1073.350,1.930E-06
1073.700,1.897E-06
1074.050,1.848E-06
1074.400,1.799E-06
1074.750,1.758E-06
1075.100,1.711E-06
1075.450,1.670E-06
1075.800,1.638E-06
1076.150,1.602E-06
1076.500,1.571E-06
1076.850,1.528E-06
1077.200,1.500E-06
1077.550,1.457E-06
1077.900,1.410E-06
1078.250,1.374E-06
1078.600,1.340E-06
1078.950,1.303E-06
1079.300,1.268E-06
1079.650,1.234E-06
1080.000,1.202E-06
1080.350,1.163E-06
1080.700,1.134E-06
1081.050,1.096E-06
1081.400,1.089E-06
1081.750,1.055E-06
1082.100,1.047E-06
1082.450,1.008E-06
1082.800,9.834E-07
1083.150,9.606E-07
1083.500,9.384E-07
1083.850,9.105E-07
1084.200,9.011E-07
1084.550,8.758E-07
1084.900,8.534E-07
1085.250,8.321E-07
1085.600,8.103E-07
1085.950,7.899E-07
1086.300,7.692E-07
1086.650,7.458E-07
1087.000,7.298E-07
1087.350,7.094E-07
1087.700,6.911E-07
1088.050,6.773E-07
1088.400,6.582E-07
1088.750,6.449E-07
1089.100,6.219E-07
1089.450,6.069E-07
1089.800,5.918E-07
1090.150,5.778E-07
1090.500,5.642E-07
1090.850,5.547E-07
1091.200,5.438E-07
1091.550,5.338E-07
1091.900,5.194E-07
1092.250,5.033E-07
1092.600,4.893E-07
1092.950,4.747E-07
1093.300,4.636E-07
1093.650,4.510E-07
1094.000,4.373E-07
1094.350,4.237E-07
1094.700,4.117E-07
1095.050,4.016E-07
1095.400,3.934E-07
1095.750,3.833E-07
1096.100,3.742E-07
1096.450,3.676E-07
1096.800,3.586E-07
1097.150,3.506E-07
1097.500,3.394E-07
1097.850,3.286E-07
1098.200,3.216E-07
1098.550,3.100E-07
1098.900,3.012E-07
1099.250,2.939E-07
1099.600,2.841E-07
1099.950,2.811E-07
1100.300,2.726E-07
1100.650,2.667E-07
1101.000,2.612E-07
1101.350,2.565E-07
1101.700,2.495E-07
1102.050,2.426E-07
1102.400,2.360E-07
1102.750,2.305E-07
1103.100,2.241E-07
1103.450,2.202E-07
1103.800,2.127E-07
1104.150,2.074E-07
1104.500,2.022E-07
1104.850,1.975E-07
1105.200,1.935E-07
1105.550,1.872E-07
1105.900,1.829E-07
1106.250,1.777E-07
1106.600,1.769E-07
1106.950,1.729E-07
1107.300,1.691E-07
1107.650,1.640E-07
1108.000,1.607E-07
1108.350,1.585E-07
1108.700,1.547E-07
1109.050,1.515E-07
1109.400,1.482E-07
1109.750,1.452E-07
1110.100,1.414E-07
1110.450,1.377E-07
1110.800,1.339E-07
1111.150,1.302E-07
1111.500,1.269E-07
1111.850,1.242E-07
1112.200,1.220E-07
1112.550,1.196E-07
1112.900,1.176E-07
1113.250,1.156E-07
1113.600,1.134E-07
1113.950,1.111E-07
1114.300,1.090E-07
1114.650,1.068E-07
1115.000,1.049E-07
1115.350,1.030E-07
1115.700,1.005E-07
1116.050,9.755E-08
1116.400,9.458E-08
1116.750,9.185E-08
1117.100,8.932E-08
1117.450,8.692E-08
1117.800,8.449E-08
1118.150,8.277E-08
1118.500,8.087E-08
1118.850,7.907E-08
1119.200,7.727E-08
1119.550,7.572E-08
1119.900,7.404E-08
1120.250,7.247E-08
1120.600,7.130E-08
1120.950,6.974E-08
1121.300,6.835E-08
1121.650,6.647E-08
1122.000,6.449E-08
1122.350,6.288E-08
1122.700,6.141E-08
1123.050,6.019E-08
1123.400,5.854E-08
1123.750,5.718E-08
1124.100,5.600E-08
1124.450,5.443E-08
1124.800,5.312E-08
1125.150,5.142E-08
1125.500,5.038E-08
1125.850,4.904E-08
1126.200,4.839E-08
1126.550,4.769E-08
1126.900,4.651E-08
1127.250,4.576E-08
1127.600,4.470E-08
1127.950,4.364E-08
1128.300,4.263E-08
1128.650,4.182E-08
1129.000,4.101E-08
1129.350,3.994E-08
1129.700,3.864E-08
1130.050,3.790E-08
1130.400,3.720E-08
1130.750,3.645E-08
1131.100,3.545E-08
1131.450,3.444E-08
1131.800,3.380E-08
1132.150,3.326E-08
1132.500,3.254E-08
1132.850,3.155E-08
1133.200,3.094E-08
1133.550,3.020E-08
1133.900,2.953E-08
1134.250,2.859E-08
1134.600,2.773E-08
1134.950,2.734E-08
1135.300,2.684E-08
1135.650,2.634E-08
1136.000,2.582E-08
1136.350,2.513E-08
1136.700,2.474E-08
1137.050,2.418E-08
1137.400,2.335E-08
1137.750,2.295E-08
1138.100,2.225E-08
1138.450,2.180E-08
1138.800,2.136E-08
1139.150,2.092E-08
1139.500,2.036E-08
1139.850,1.997E-08
1140.200,1.970E-08
1140.550,1.941E-08
1140.900,1.891E-08
1141.250,1.852E-08
1141.600,1.816E-08
1141.950,1.796E-08
1142.300,1.740E-08
1142.650,1.703E-08
1143.000,1.655E-08
1143.350,1.625E-08
1143.700,1.592E-08
1144.050,1.532E-08
1144.400,1.504E-08
1144.750,1.467E-08
1145.100,1.450E-08
1145.450,1.412E-08
1145.800,1.386E-08
1146.150,1.351E-08
1146.500,1.334E-08
1146.850,1.312E-08
1147.200,1.289E-08
1147.550,1.280E-08
1147.900,1.264E-08
1148.250,1.246E-08
1148.600,1.207E-08
1148.950,1.161E-08
1149.300,1.127E-08
1149.650,1.095E-08
1150.000,1.054E-08
