IstTemp[K]=293.00

 800.000,4.454E-10
 800.350,3.217E-10
 800.700,4.206E-10
 801.050,3.209E-10
 801.400,3.209E-10
 801.750,5.184E-10
 802.100,3.950E-10
 802.450,3.202E-10
 802.800,3.941E-10
 803.150,4.926E-10
 803.500,2.703E-10
 803.850,4.669E-10
 804.200,4.669E-10
 804.550,3.194E-10
 804.900,3.677E-10
 805.250,2.942E-10
 805.600,4.658E-10
 805.950,4.647E-10
 806.300,4.158E-10
 806.650,4.647E-10
 807.000,5.870E-10
 807.350,4.149E-10
 807.700,4.881E-10
 808.050,3.661E-10
 808.400,4.637E-10
 808.750,4.870E-10
 809.100,3.896E-10
 809.450,4.626E-10
 809.800,4.372E-10
 810.150,2.915E-10
 810.500,3.644E-10
 810.850,4.130E-10
 811.200,4.847E-10
 811.550,3.878E-10
 811.900,2.666E-10
 812.250,4.605E-10
 812.600,4.836E-10
 812.950,4.836E-10
 813.300,4.111E-10
 813.650,3.143E-10
 814.000,2.171E-10
 814.350,3.619E-10
 814.700,3.377E-10
 815.050,3.377E-10
 815.400,4.573E-10
 815.750,2.648E-10
 816.100,2.166E-10
 816.450,2.888E-10
 816.800,4.332E-10
 817.150,4.563E-10
 817.500,5.763E-10
 817.850,3.362E-10
 818.200,3.122E-10
 818.550,3.833E-10
 818.900,3.594E-10
 819.250,3.833E-10
 819.600,4.312E-10
 819.950,5.976E-10
 820.300,3.339E-10
 820.650,6.201E-10
 821.000,3.093E-10
 821.350,4.045E-10
 821.700,3.561E-10
 822.050,2.605E-10
 822.400,5.210E-10
 822.750,5.199E-10
 823.100,6.130E-10
 823.450,2.829E-10
 823.800,5.410E-10
 824.150,6.101E-10
 824.500,5.867E-10
 824.850,3.980E-10
 825.200,5.151E-10
 825.550,3.504E-10
 825.900,4.195E-10
 826.250,5.360E-10
 826.600,1.860E-10
 826.950,4.640E-10
 827.300,6.264E-10
 827.650,4.860E-10
 828.000,3.009E-10
 828.350,3.464E-10
 828.700,4.838E-10
 829.050,2.073E-10
 829.400,3.218E-10
 829.750,4.128E-10
 830.100,5.491E-10
 830.450,1.141E-10
 830.800,4.545E-10
 831.150,4.081E-10
 831.500,3.619E-10
 831.850,4.953E-10
 832.200,3.594E-10
 832.550,4.482E-10
 832.900,4.238E-10
 833.250,4.896E-10
 833.600,4.663E-10
 833.950,4.863E-10
 834.300,5.072E-10
 834.650,3.960E-10
 835.000,5.694E-10
 835.350,5.681E-10
 835.700,4.796E-10
 836.050,4.557E-10
 836.400,4.113E-10
 836.750,4.536E-10
 837.100,6.665E-10
 837.450,3.647E-10
 837.800,4.066E-10
 838.150,2.556E-10
 838.500,4.251E-10
 838.850,4.877E-10
 839.200,4.855E-10
 839.550,6.107E-10
 839.900,4.412E-10
 840.250,5.673E-10
 840.600,2.731E-10
 840.950,3.362E-10
 841.300,3.992E-10
 841.650,4.633E-10
 842.000,4.001E-10
 842.350,4.423E-10
 842.700,4.423E-10
 843.050,3.377E-10
 843.400,6.544E-10
 843.750,5.066E-10
 844.100,6.121E-10
 844.450,5.488E-10
 844.800,4.020E-10
 845.150,3.174E-10
 845.500,6.136E-10
 845.850,5.078E-10
 846.200,4.443E-10
 846.550,6.998E-10
 846.900,6.362E-10
 847.250,4.665E-10
 847.600,5.726E-10
 847.950,4.877E-10
 848.300,4.251E-10
 848.650,6.802E-10
 849.000,6.376E-10
 849.350,4.889E-10
 849.700,4.261E-10
 850.050,5.965E-10
 850.400,6.619E-10
 850.750,5.552E-10
 851.100,6.207E-10
 851.450,4.934E-10
 851.800,4.719E-10
 852.150,5.375E-10
 852.500,4.300E-10
 852.850,4.095E-10
 853.200,5.819E-10
 853.550,5.616E-10
 853.900,7.361E-10
 854.250,4.763E-10
 854.600,6.510E-10
 854.950,5.642E-10
 855.300,8.265E-10
 855.650,5.450E-10
 856.000,6.758E-10
 856.350,7.429E-10
 856.700,6.555E-10
 857.050,8.103E-10
 857.400,7.683E-10
 857.750,8.561E-10
 858.100,8.361E-10
 858.450,7.261E-10
 858.800,8.600E-10
 859.150,7.957E-10
 859.500,7.736E-10
 859.850,8.197E-10
 860.200,7.089E-10
 860.550,1.066E-09
 860.900,7.790E-10
 861.250,9.125E-10
 861.600,8.031E-10
 861.950,7.826E-10
 862.300,8.049E-10
 862.650,8.964E-10
 863.000,8.985E-10
 863.350,8.985E-10
 863.700,9.231E-10
 864.050,9.252E-10
 864.400,9.929E-10
 864.750,9.047E-10
 865.100,9.748E-10
 865.450,1.020E-09
 865.800,1.113E-09
 866.150,1.253E-09
 866.500,1.480E-09
 866.850,1.187E-09
 867.200,1.281E-09
 867.550,1.373E-09
 867.900,1.307E-09
 868.250,1.241E-09
 868.600,1.425E-09
 868.950,1.336E-09
 869.300,1.455E-09
 869.650,1.455E-09
 870.000,1.736E-09
 870.350,1.740E-09
 870.700,1.841E-09
 871.050,1.729E-09
 871.400,1.896E-09
 871.750,1.854E-09
 872.100,1.929E-09
 872.450,2.051E-09
 872.800,2.103E-09
 873.150,2.203E-09
 873.500,2.421E-09
 873.850,2.379E-09
 874.200,2.528E-09
 874.550,2.677E-09
 874.900,2.683E-09
 875.250,2.786E-09
 875.600,2.840E-09
 875.950,3.257E-09
 876.300,3.313E-09
 876.650,3.660E-09
 877.000,3.741E-09
 877.350,3.896E-09
 877.700,3.963E-09
 878.050,4.388E-09
 878.400,4.374E-09
 878.750,4.458E-09
 879.100,4.764E-09
 879.450,5.072E-09
 879.800,5.208E-09
 880.150,5.506E-09
 880.500,5.916E-09
 880.850,6.179E-09
 881.200,6.393E-09
 881.550,6.892E-09
 881.900,7.384E-09
 882.250,7.677E-09
 882.600,8.072E-09
 882.950,8.248E-09
 883.300,8.922E-09
 883.650,8.993E-09
 884.000,9.520E-09
 884.350,1.003E-08
 884.700,1.058E-08
 885.050,1.119E-08
 885.400,1.175E-08
 885.750,1.237E-08
 886.100,1.316E-08
 886.450,1.388E-08
 886.800,1.457E-08
 887.150,1.517E-08
 887.500,1.616E-08
 887.850,1.702E-08
 888.200,1.774E-08
 888.550,1.872E-08
 888.900,1.982E-08
 889.250,2.103E-08
 889.600,2.215E-08
 889.950,2.322E-08
 890.300,2.455E-08
 890.650,2.577E-08
 891.000,2.681E-08
 891.350,2.814E-08
 891.700,2.941E-08
 892.050,3.061E-08
 892.400,3.170E-08
 892.750,3.319E-08
 893.100,3.488E-08
 893.450,3.618E-08
 893.800,3.787E-08
 894.150,3.936E-08
 894.500,4.068E-08
 894.850,4.204E-08
 895.200,4.407E-08
 895.550,4.578E-08
 895.900,4.776E-08
 896.250,4.978E-08
 896.600,5.194E-08
 896.950,5.355E-08
 897.300,5.583E-08
 897.650,5.786E-08
 898.000,6.012E-08
 898.350,6.272E-08
 898.700,6.523E-08
 899.050,6.755E-08
 899.400,7.025E-08
 899.750,7.330E-08
 900.100,7.595E-08
 900.450,7.902E-08
 900.800,8.182E-08
 901.150,8.518E-08
 901.500,8.852E-08
 901.850,9.176E-08
 902.200,9.493E-08
 902.550,9.872E-08
 902.900,1.026E-07
 903.250,1.070E-07
 903.600,1.108E-07
 903.950,1.149E-07
 904.300,1.189E-07
 904.650,1.237E-07
 905.000,1.281E-07
 905.350,1.330E-07
 905.700,1.384E-07
 906.050,1.435E-07
 906.400,1.498E-07
 906.750,1.560E-07
 907.100,1.631E-07
 907.450,1.706E-07
 907.800,1.779E-07
 908.150,1.862E-07
 908.500,1.939E-07
 908.850,2.026E-07
 909.200,2.115E-07
 909.550,2.210E-07
 909.900,2.313E-07
 910.250,2.426E-07
 910.600,2.546E-07
 910.950,2.673E-07
 911.300,2.802E-07
 911.650,2.937E-07
 912.000,3.079E-07
 912.350,3.229E-07
 912.700,3.384E-07
 913.050,3.552E-07
 913.400,3.727E-07
 913.750,3.926E-07
 914.100,4.137E-07
 914.450,4.358E-07
 914.800,4.568E-07
 915.150,4.797E-07
 915.500,5.043E-07
 915.850,5.307E-07
 916.200,5.578E-07
 916.550,5.865E-07
 916.900,6.161E-07
 917.250,6.484E-07
 917.600,6.838E-07
 917.950,7.161E-07
 918.300,7.513E-07
 918.650,7.855E-07
 919.000,8.204E-07
 919.350,8.527E-07
 919.700,8.840E-07
 920.050,9.141E-07
 920.400,9.402E-07
 920.750,9.641E-07
 921.100,9.885E-07
 921.450,1.011E-06
 921.800,1.037E-06
 922.150,1.061E-06
 922.500,1.082E-06
 922.850,1.107E-06
 923.200,1.123E-06
 923.550,1.142E-06
 923.900,1.160E-06
 924.250,1.178E-06
 924.600,1.190E-06
 924.950,1.207E-06
 925.300,1.220E-06
 925.650,1.233E-06
 926.000,1.244E-06
 926.350,1.257E-06
 926.700,1.272E-06
 927.050,1.283E-06
 927.400,1.292E-06
 927.750,1.303E-06
 928.100,1.307E-06
 928.450,1.317E-06
 928.800,1.327E-06
 929.150,1.336E-06
 929.500,1.349E-06
 929.850,1.361E-06
 930.200,1.369E-06
 930.550,1.375E-06
 930.900,1.390E-06
 931.250,1.402E-06
 931.600,1.410E-06
 931.950,1.423E-06
 932.300,1.437E-06
 932.650,1.450E-06
 933.000,1.468E-06
 933.350,1.481E-06
 933.700,1.500E-06
 934.050,1.516E-06
 934.400,1.536E-06
 934.750,1.563E-06
 935.100,1.588E-06
 935.450,1.610E-06
 935.800,1.636E-06
 936.150,1.653E-06
 936.500,1.675E-06
 936.850,1.695E-06
 937.200,1.712E-06
 937.550,1.732E-06
 937.900,1.749E-06
 938.250,1.772E-06
 938.600,1.802E-06
 938.950,1.842E-06
 939.300,1.879E-06
 939.650,1.929E-06
 940.000,1.976E-06
 940.350,2.029E-06
 940.700,2.073E-06
 941.050,2.117E-06
 941.400,2.149E-06
 941.750,2.185E-06
 942.100,2.215E-06
 942.450,2.251E-06
 942.800,2.282E-06
 943.150,2.322E-06
 943.500,2.366E-06
 943.850,2.413E-06
 944.200,2.471E-06
 944.550,2.519E-06
 944.900,2.567E-06
 945.250,2.614E-06
 945.600,2.656E-06
 945.950,2.687E-06
 946.300,2.723E-06
 946.650,2.758E-06
 947.000,2.799E-06
 947.350,2.835E-06
 947.700,2.875E-06
 948.050,2.913E-06
 948.400,2.963E-06
 948.750,3.016E-06
 949.100,3.083E-06
 949.450,3.142E-06
 949.800,3.201E-06
 950.150,3.260E-06
 950.500,3.339E-06
 950.850,3.404E-06
 951.200,3.477E-06
 951.550,3.547E-06
 951.900,3.613E-06
 952.250,3.694E-06
 952.600,3.775E-06
 952.950,3.861E-06
 953.300,3.947E-06
 953.650,4.049E-06
 954.000,4.167E-06
 954.350,4.270E-06
 954.700,4.369E-06
 955.050,4.452E-06
 955.400,4.549E-06
 955.750,4.664E-06
 956.100,4.761E-06
 956.450,4.883E-06
 956.800,4.984E-06
 957.150,5.111E-06
 957.500,5.250E-06
 957.850,5.379E-06
 958.200,5.509E-06
 958.550,5.650E-06
 958.900,5.786E-06
 959.250,5.916E-06
 959.600,6.084E-06
 959.950,6.208E-06
 960.300,6.340E-06
 960.650,6.484E-06
 961.000,6.646E-06
 961.350,6.839E-06
 961.700,7.028E-06
 962.050,7.232E-06
 962.400,7.456E-06
 962.750,7.690E-06
 963.100,7.920E-06
 963.450,8.190E-06
 963.800,8.495E-06
 964.150,8.884E-06
 964.500,9.340E-06
 964.850,9.741E-06
 965.200,9.969E-06
 965.550,1.005E-05
 965.900,1.008E-05
 966.250,1.012E-05
 966.600,1.027E-05
 966.950,1.047E-05
 967.300,1.065E-05
 967.650,1.118E-05
 968.000,1.181E-05
 968.350,1.415E-05
 968.700,1.491E-05
 969.050,1.573E-05
 969.400,1.483E-05
 969.750,1.658E-05
 970.100,1.926E-05
 970.450,1.938E-05
 970.800,1.891E-05
 971.150,1.492E-05
 971.500,1.672E-05
 971.850,1.927E-05
 972.200,2.080E-05
 972.550,1.901E-05
 972.900,1.897E-05
 973.250,1.714E-05
 973.600,1.738E-05
 973.950,1.775E-05
 974.300,1.743E-05
 974.650,1.764E-05
 975.000,1.828E-05
 975.350,1.894E-05
 975.700,1.966E-05
 976.050,2.039E-05
 976.400,2.110E-05
 976.750,2.189E-05
 977.100,2.270E-05
 977.450,2.350E-05
 977.800,2.427E-05
 978.150,2.508E-05
 978.500,2.582E-05
 978.850,2.645E-05
 979.200,2.700E-05
 979.550,2.746E-05
 979.900,2.778E-05
 980.250,2.798E-05
 980.600,2.812E-05
 980.950,2.801E-05
 981.300,2.767E-05
 981.650,2.738E-05
 982.000,2.715E-05
 982.350,2.693E-05
 982.700,2.666E-05
 983.050,2.636E-05
 983.400,2.610E-05
 983.750,2.579E-05
 984.100,2.561E-05
 984.450,2.525E-05
 984.800,2.496E-05
 985.150,2.489E-05
 985.500,2.474E-05
 985.850,2.466E-05
 986.200,2.457E-05
 986.550,2.436E-05
 986.900,2.419E-05
 987.250,2.400E-05
 987.600,2.382E-05
 987.950,2.371E-05
 988.300,2.374E-05
 988.650,2.358E-05
 989.000,2.351E-05
 989.350,2.342E-05
 989.700,2.318E-05
 990.050,2.299E-05
 990.400,2.274E-05
 990.750,2.241E-05
 991.100,2.207E-05
 991.450,2.170E-05
 991.800,2.131E-05
 992.150,2.101E-05
 992.500,2.066E-05
 992.850,2.036E-05
 993.200,2.005E-05
 993.550,1.981E-05
 993.900,1.955E-05
 994.250,1.934E-05
 994.600,1.906E-05
 994.950,1.886E-05
 995.300,1.870E-05
 995.650,1.843E-05
 996.000,1.821E-05
 996.350,1.802E-05
 996.700,1.780E-05
 997.050,1.762E-05
 997.400,1.747E-05
 997.750,1.725E-05
 998.100,1.704E-05
 998.450,1.679E-05
 998.800,1.665E-05
 999.150,1.648E-05
 999.500,1.632E-05
 999.850,1.621E-05
1000.200,1.616E-05
1000.550,1.610E-05
1000.900,1.606E-05
1001.250,1.609E-05
1001.600,1.603E-05
1001.950,1.593E-05
1002.300,1.585E-05
1002.650,1.574E-05
1003.000,1.558E-05
1003.350,1.555E-05
1003.700,1.550E-05
1004.050,1.540E-05
1004.400,1.535E-05
1004.750,1.532E-05
1005.100,1.532E-05
1005.450,1.539E-05
1005.800,1.545E-05
1006.150,1.558E-05
1006.500,1.570E-05
1006.850,1.576E-05
1007.200,1.583E-05
1007.550,1.586E-05
1007.900,1.581E-05
1008.250,1.571E-05
1008.600,1.574E-05
1008.950,1.571E-05
1009.300,1.573E-05
1009.650,1.580E-05
1010.000,1.589E-05
1010.350,1.599E-05
1010.700,1.612E-05
1011.050,1.621E-05
1011.400,1.629E-05
1011.750,1.640E-05
1012.100,1.641E-05
1012.450,1.648E-05
1012.800,1.644E-05
1013.150,1.643E-05
1013.500,1.641E-05
1013.850,1.641E-05
1014.200,1.635E-05
1014.550,1.636E-05
1014.900,1.635E-05
1015.250,1.635E-05
1015.600,1.630E-05
1015.950,1.620E-05
1016.300,1.612E-05
1016.650,1.611E-05
1017.000,1.604E-05
1017.350,1.595E-05
1017.700,1.588E-05
1018.050,1.578E-05
1018.400,1.569E-05
1018.750,1.559E-05
1019.100,1.546E-05
1019.450,1.536E-05
1019.800,1.532E-05
1020.150,1.522E-05
1020.500,1.508E-05
1020.850,1.500E-05
1021.200,1.486E-05
1021.550,1.477E-05
1021.900,1.475E-05
1022.250,1.469E-05
1022.600,1.461E-05
1022.950,1.463E-05
1023.300,1.464E-05
1023.650,1.463E-05
1024.000,1.464E-05
1024.350,1.459E-05
1024.700,1.455E-05
1025.050,1.449E-05
1025.400,1.437E-05
1025.750,1.430E-05
1026.100,1.427E-05
1026.450,1.420E-05
1026.800,1.427E-05
1027.150,1.429E-05
1027.500,1.434E-05
1027.850,1.443E-05
1028.200,1.449E-05
1028.550,1.456E-05
1028.900,1.458E-05
1029.250,1.454E-05
1029.600,1.447E-05
1029.950,1.446E-05
1030.300,1.439E-05
1030.650,1.431E-05
1031.000,1.428E-05
1031.350,1.422E-05
1031.700,1.416E-05
1032.050,1.414E-05
1032.400,1.403E-05
1032.750,1.397E-05
1033.100,1.388E-05
1033.450,1.377E-05
1033.800,1.365E-05
1034.150,1.356E-05
1034.500,1.335E-05
1034.850,1.323E-05
1035.200,1.311E-05
1035.550,1.289E-05
1035.900,1.275E-05
1036.250,1.261E-05
1036.600,1.241E-05
1036.950,1.226E-05
1037.300,1.210E-05
1037.650,1.200E-05
1038.000,1.187E-05
1038.350,1.174E-05
1038.700,1.154E-05
1039.050,1.147E-05
1039.400,1.134E-05
1039.750,1.122E-05
1040.100,1.111E-05
1040.450,1.101E-05
1040.800,1.088E-05
1041.150,1.075E-05
1041.500,1.066E-05
1041.850,1.063E-05
1042.200,1.057E-05
1042.550,1.056E-05
1042.900,1.048E-05
1043.250,1.042E-05
1043.600,1.042E-05
1043.950,1.045E-05
1044.300,1.045E-05
1044.650,1.043E-05
1045.000,1.040E-05
1045.350,1.035E-05
1045.700,1.028E-05
1046.050,1.021E-05
1046.400,1.015E-05
1046.750,1.008E-05
1047.100,9.984E-06
1047.450,9.946E-06
1047.800,9.836E-06
1048.150,9.739E-06
1048.500,9.687E-06
1048.850,9.580E-06
1049.200,9.496E-06
1049.550,9.432E-06
1049.900,9.331E-06
1050.250,9.067E-06
1050.600,9.014E-06
1050.950,8.919E-06
1051.300,8.764E-06
1051.650,8.669E-06
1052.000,8.511E-06
1052.350,8.328E-06
1052.700,8.223E-06
1053.050,8.061E-06
1053.400,7.908E-06
1053.750,7.786E-06
1054.100,7.591E-06
1054.450,7.429E-06
1054.800,7.311E-06
1055.150,7.136E-06
1055.500,6.986E-06
1055.850,6.843E-06
1056.200,6.679E-06
1056.550,6.543E-06
1056.900,6.397E-06
1057.250,6.217E-06
1057.600,6.089E-06
1057.950,5.952E-06
1058.300,5.794E-06
1058.650,5.654E-06
1059.000,5.526E-06
1059.350,5.401E-06
1059.700,5.301E-06
1060.050,5.193E-06
1060.400,5.074E-06
1060.750,4.962E-06
1061.100,4.851E-06
1061.450,4.708E-06
1061.800,4.601E-06
1062.150,4.496E-06
1062.500,4.387E-06
1062.850,4.291E-06
1063.200,4.194E-06
1063.550,4.121E-06
1063.900,4.033E-06
1064.250,3.950E-06
1064.600,3.874E-06
1064.950,3.793E-06
1065.300,3.709E-06
1065.650,3.645E-06
1066.000,3.564E-06
1066.350,3.470E-06
1066.700,3.399E-06
1067.050,3.351E-06
1067.400,3.273E-06
1067.750,3.213E-06
1068.100,3.141E-06
1068.450,3.065E-06
1068.800,2.998E-06
1069.150,2.942E-06
1069.500,2.874E-06
1069.850,2.816E-06
1070.200,2.739E-06
1070.550,2.681E-06
1070.900,2.630E-06
1071.250,2.577E-06
1071.600,2.522E-06
1071.950,2.471E-06
1072.300,2.419E-06
1072.650,2.365E-06
1073.000,2.315E-06
1073.350,2.254E-06
1073.700,2.193E-06
1074.050,2.146E-06
1074.400,2.105E-06
1074.750,2.054E-06
1075.100,2.005E-06
1075.450,1.951E-06
1075.800,1.919E-06
1076.150,1.872E-06
1076.500,1.824E-06
1076.850,1.783E-06
1077.200,1.740E-06
1077.550,1.691E-06
1077.900,1.639E-06
1078.250,1.597E-06
1078.600,1.556E-06
1078.950,1.521E-06
1079.300,1.483E-06
1079.650,1.443E-06
1080.000,1.397E-06
1080.350,1.354E-06
1080.700,1.317E-06
1081.050,1.289E-06
1081.400,1.265E-06
1081.750,1.235E-06
1082.100,1.214E-06
1082.450,1.184E-06
1082.800,1.151E-06
1083.150,1.118E-06
1083.500,1.088E-06
1083.850,1.061E-06
1084.200,1.038E-06
1084.550,1.015E-06
1084.900,9.934E-07
1085.250,9.691E-07
1085.600,9.459E-07
1085.950,9.194E-07
1086.300,8.966E-07
1086.650,8.708E-07
1087.000,8.499E-07
1087.350,8.288E-07
1087.700,8.068E-07
1088.050,7.878E-07
1088.400,7.678E-07
1088.750,7.456E-07
1089.100,7.256E-07
1089.450,7.078E-07
1089.800,6.906E-07
1090.150,6.769E-07
1090.500,6.619E-07
1090.850,6.470E-07
1091.200,6.349E-07
1091.550,6.227E-07
1091.900,6.063E-07
1092.250,5.886E-07
1092.600,5.748E-07
1092.950,5.576E-07
1093.300,5.440E-07
1093.650,5.290E-07
1094.000,5.160E-07
1094.350,5.012E-07
1094.700,4.866E-07
1095.050,4.733E-07
1095.400,4.587E-07
1095.750,4.484E-07
1096.100,4.373E-07
1096.450,4.282E-07
1096.800,4.191E-07
1097.150,4.103E-07
1097.500,3.985E-07
1097.850,3.884E-07
1098.200,3.779E-07
1098.550,3.673E-07
1098.900,3.577E-07
1099.250,3.479E-07
1099.600,3.385E-07
1099.950,3.293E-07
1100.300,3.213E-07
1100.650,3.136E-07
1101.000,3.058E-07
1101.350,2.990E-07
1101.700,2.913E-07
1102.050,2.845E-07
1102.400,2.757E-07
1102.750,2.689E-07
1103.100,2.628E-07
1103.450,2.550E-07
1103.800,2.485E-07
1104.150,2.425E-07
1104.500,2.367E-07
1104.850,2.307E-07
1105.200,2.246E-07
1105.550,2.190E-07
1105.900,2.133E-07
1106.250,2.087E-07
1106.600,2.041E-07
1106.950,1.988E-07
1107.300,1.946E-07
1107.650,1.904E-07
1108.000,1.865E-07
1108.350,1.831E-07
1108.700,1.789E-07
1109.050,1.748E-07
1109.400,1.719E-07
1109.750,1.680E-07
1110.100,1.637E-07
1110.450,1.591E-07
1110.800,1.551E-07
1111.150,1.506E-07
1111.500,1.473E-07
1111.850,1.436E-07
1112.200,1.408E-07
1112.550,1.378E-07
1112.900,1.358E-07
1113.250,1.334E-07
1113.600,1.309E-07
1113.950,1.281E-07
1114.300,1.258E-07
1114.650,1.228E-07
1115.000,1.207E-07
1115.350,1.181E-07
1115.700,1.153E-07
1116.050,1.124E-07
1116.400,1.093E-07
1116.750,1.059E-07
1117.100,1.028E-07
1117.450,1.003E-07
1117.800,9.758E-08
1118.150,9.500E-08
1118.500,9.292E-08
1118.850,9.107E-08
1119.200,8.876E-08
1119.550,8.738E-08
1119.900,8.538E-08
1120.250,8.362E-08
1120.600,8.216E-08
1120.950,8.020E-08
1121.300,7.828E-08
1121.650,7.616E-08
1122.000,7.399E-08
1122.350,7.216E-08
1122.700,7.067E-08
1123.050,6.897E-08
1123.400,6.705E-08
1123.750,6.571E-08
1124.100,6.419E-08
1124.450,6.281E-08
1124.800,6.104E-08
1125.150,5.911E-08
1125.500,5.765E-08
1125.850,5.650E-08
1126.200,5.580E-08
1126.550,5.479E-08
1126.900,5.374E-08
1127.250,5.273E-08
1127.600,5.118E-08
1127.950,5.008E-08
1128.300,4.927E-08
1128.650,4.826E-08
1129.000,4.671E-08
1129.350,4.555E-08
1129.700,4.450E-08
1130.050,4.364E-08
1130.400,4.287E-08
1130.750,4.157E-08
1131.100,4.079E-08
1131.450,3.992E-08
1131.800,3.911E-08
1132.150,3.819E-08
1132.500,3.725E-08
1132.850,3.624E-08
1133.200,3.553E-08
1133.550,3.470E-08
1133.900,3.390E-08
1134.250,3.290E-08
1134.600,3.203E-08
1134.950,3.136E-08
1135.300,3.078E-08
1135.650,3.023E-08
1136.000,2.963E-08
1136.350,2.895E-08
1136.700,2.837E-08
1137.050,2.779E-08
1137.400,2.694E-08
1137.750,2.628E-08
1138.100,2.550E-08
1138.450,2.495E-08
1138.800,2.449E-08
1139.150,2.395E-08
1139.500,2.355E-08
1139.850,2.295E-08
1140.200,2.256E-08
1140.550,2.218E-08
1140.900,2.185E-08
1141.250,2.134E-08
1141.600,2.099E-08
1141.950,2.057E-08
1142.300,2.007E-08
1142.650,1.951E-08
1143.000,1.911E-08
1143.350,1.850E-08
1143.700,1.827E-08
1144.050,1.777E-08
1144.400,1.741E-08
1144.750,1.684E-08
1145.100,1.660E-08
1145.450,1.629E-08
1145.800,1.585E-08
1146.150,1.549E-08
1146.500,1.528E-08
1146.850,1.516E-08
1147.200,1.478E-08
1147.550,1.455E-08
1147.900,1.437E-08
1148.250,1.393E-08
1148.600,1.378E-08
1148.950,1.342E-08
1149.300,1.282E-08
1149.650,1.242E-08
1150.000,1.230E-08
