IstTemp[K]=293.00

1500.000,1.364E-006
1500.400,1.348E-006
1500.800,1.319E-006
1501.200,1.324E-006
1501.600,1.413E-006
1502.000,1.306E-006
1502.400,1.304E-006
1502.800,1.469E-006
1503.200,1.310E-006
1503.600,1.271E-006
1504.000,1.274E-006
1504.400,1.331E-006
1504.800,1.277E-006
1505.200,1.283E-006
1505.600,1.288E-006
1506.000,1.344E-006
1506.400,1.309E-006
1506.800,1.176E-006
1507.200,1.191E-006
1507.600,1.363E-006
1508.000,1.238E-006
1508.400,1.304E-006
1508.800,1.294E-006
1509.200,1.385E-006
1509.600,1.331E-006
1510.000,1.276E-006
1510.400,1.285E-006
1510.800,1.407E-006
1511.200,1.385E-006
1511.600,1.380E-006
1512.000,1.413E-006
1512.400,1.476E-006
1512.800,1.399E-006
1513.200,1.441E-006
1513.600,1.314E-006
1514.000,1.360E-006
1514.400,1.349E-006
1514.800,1.359E-006
1515.200,1.303E-006
1515.600,1.312E-006
1516.000,1.337E-006
1516.400,1.228E-006
1516.800,1.184E-006
1517.200,1.293E-006
1517.600,1.290E-006
1518.000,1.297E-006
1518.400,1.257E-006
1518.800,1.274E-006
1519.200,1.351E-006
1519.600,1.356E-006
1520.000,1.317E-006
1520.400,1.327E-006
1520.800,1.421E-006
1521.200,1.426E-006
1521.600,1.383E-006
1522.000,1.411E-006
1522.400,1.402E-006
1522.800,1.293E-006
1523.200,1.408E-006
1523.600,1.453E-006
1524.000,1.431E-006
1524.400,1.485E-006
1524.800,1.352E-006
1525.200,1.369E-006
1525.600,1.382E-006
1526.000,1.392E-006
1526.400,1.454E-006
1526.800,1.266E-006
1527.200,1.334E-006
1527.600,1.377E-006
1528.000,1.377E-006
1528.400,1.352E-006
1528.800,1.332E-006
1529.200,1.269E-006
1529.600,1.240E-006
1530.000,1.334E-006
1530.400,1.302E-006
1530.800,1.341E-006
1531.200,1.354E-006
1531.600,1.480E-006
1532.000,1.383E-006
1532.400,1.233E-006
1532.800,1.400E-006
1533.200,1.402E-006
1533.600,1.376E-006
1534.000,1.341E-006
1534.400,1.329E-006
1534.800,1.319E-006
1535.200,1.351E-006
1535.600,1.238E-006
1536.000,1.366E-006
1536.400,1.282E-006
1536.800,1.327E-006
1537.200,1.362E-006
1537.600,1.363E-006
1538.000,1.269E-006
1538.400,1.286E-006
1538.800,1.245E-006
1539.200,1.350E-006
1539.600,1.136E-006
1540.000,1.232E-006
1540.400,1.339E-006
1540.800,1.324E-006
1541.200,1.269E-006
1541.600,1.184E-006
1542.000,1.229E-006
1542.400,1.205E-006
1542.800,1.255E-006
1543.200,1.198E-006
1543.600,1.265E-006
1544.000,1.200E-006
1544.400,1.306E-006
1544.800,1.377E-006
1545.200,1.342E-006
1545.600,1.308E-006
1546.000,1.344E-006
1546.400,1.381E-006
1546.800,1.311E-006
1547.200,1.415E-006
1547.600,1.420E-006
1548.000,1.487E-006
1548.400,1.341E-006
1548.800,1.379E-006
1549.200,1.316E-006
1549.600,1.354E-006
1550.000,1.369E-006
1550.400,1.293E-006
1550.800,1.391E-006
1551.200,1.407E-006
1551.600,1.338E-006
1552.000,1.267E-006
1552.400,1.195E-006
1552.800,1.215E-006
1553.200,1.289E-006
1553.600,1.334E-006
1554.000,1.276E-006
1554.400,1.255E-006
1554.800,1.328E-006
1555.200,1.202E-006
1555.600,1.263E-006
1556.000,1.255E-006
1556.400,1.232E-006
1556.800,1.279E-006
1557.200,1.202E-006
1557.600,1.266E-006
1558.000,1.207E-006
1558.400,1.289E-006
1558.800,1.362E-006
1559.200,1.214E-006
1559.600,1.297E-006
1560.000,1.288E-006
1560.400,1.241E-006
1560.800,1.180E-006
1561.200,1.150E-006
1561.600,1.229E-006
1562.000,1.236E-006
1562.400,1.203E-006
1562.800,1.343E-006
1563.200,1.287E-006
1563.600,1.342E-006
1564.000,1.271E-006
1564.400,1.273E-006
1564.800,1.320E-006
1565.200,1.218E-006
1565.600,1.280E-006
1566.000,1.271E-006
1566.400,1.220E-006
1566.800,1.199E-006
1567.200,1.116E-006
1567.600,1.249E-006
1568.000,1.151E-006
1568.400,1.076E-006
1568.800,1.240E-006
1569.200,1.302E-006
1569.600,1.069E-006
1570.000,1.179E-006
1570.400,1.178E-006
1570.800,1.235E-006
1571.200,1.273E-006
1571.600,1.298E-006
1572.000,1.241E-006
1572.400,1.294E-006
1572.800,1.363E-006
1573.200,1.233E-006
1573.600,1.313E-006
1574.000,1.262E-006
1574.400,1.197E-006
1574.800,1.124E-006
1575.200,1.218E-006
1575.600,1.221E-006
1576.000,1.236E-006
1576.400,1.337E-006
1576.800,1.317E-006
1577.200,1.266E-006
1577.600,1.263E-006
1578.000,1.228E-006
1578.400,1.274E-006
1578.800,1.240E-006
1579.200,1.220E-006
1579.600,1.267E-006
1580.000,1.198E-006
1580.400,1.252E-006
1580.800,1.243E-006
1581.200,1.232E-006
1581.600,1.157E-006
1582.000,1.205E-006
1582.400,1.239E-006
1582.800,1.133E-006
1583.200,1.236E-006
1583.600,1.188E-006
1584.000,1.200E-006
1584.400,1.143E-006
1584.800,1.064E-006
1585.200,1.106E-006
1585.600,1.185E-006
1586.000,1.115E-006
1586.400,1.251E-006
1586.800,1.203E-006
1587.200,1.210E-006
1587.600,1.289E-006
1588.000,1.188E-006
1588.400,1.223E-006
1588.800,1.081E-006
1589.200,1.117E-006
1589.600,1.274E-006
1590.000,1.279E-006
1590.400,1.274E-006
1590.800,1.226E-006
1591.200,1.237E-006
1591.600,1.379E-006
1592.000,1.221E-006
1592.400,1.158E-006
1592.800,1.176E-006
1593.200,1.266E-006
1593.600,1.229E-006
1594.000,1.224E-006
1594.400,1.267E-006
1594.800,1.234E-006
1595.200,1.202E-006
1595.600,1.249E-006
1596.000,1.151E-006
1596.400,1.237E-006
1596.800,1.112E-006
1597.200,1.179E-006
1597.600,1.127E-006
1598.000,1.190E-006
1598.400,1.223E-006
1598.800,1.171E-006
1599.200,1.328E-006
1599.600,1.282E-006
1600.000,1.203E-006
1600.400,1.265E-006
1600.800,1.218E-006
1601.200,1.196E-006
1601.600,1.252E-006
1602.000,1.230E-006
1602.400,1.221E-006
1602.800,1.228E-006
1603.200,1.170E-006
1603.600,1.207E-006
1604.000,1.364E-006
1604.400,1.256E-006
1604.800,1.219E-006
1605.200,1.367E-006
1605.600,1.323E-006
1606.000,1.288E-006
1606.400,1.371E-006
1606.800,1.364E-006
1607.200,1.349E-006
1607.600,1.196E-006
1608.000,1.242E-006
1608.400,1.347E-006
1608.800,1.200E-006
1609.200,1.306E-006
1609.600,1.307E-006
1610.000,1.362E-006
1610.400,1.170E-006
1610.800,1.241E-006
1611.200,1.239E-006
1611.600,1.118E-006
1612.000,1.250E-006
1612.400,1.141E-006
1612.800,1.155E-006
1613.200,1.321E-006
1613.600,1.267E-006
1614.000,1.188E-006
1614.400,1.302E-006
1614.800,1.226E-006
1615.200,1.213E-006
1615.600,1.215E-006
1616.000,1.242E-006
1616.400,1.241E-006
1616.800,1.179E-006
1617.200,1.164E-006
1617.600,1.086E-006
1618.000,1.155E-006
1618.400,1.227E-006
1618.800,1.132E-006
1619.200,1.212E-006
1619.600,1.248E-006
1620.000,1.188E-006
1620.400,1.257E-006
1620.800,1.172E-006
1621.200,1.226E-006
1621.600,1.151E-006
1622.000,1.102E-006
1622.400,1.107E-006
1622.800,1.096E-006
1623.200,1.174E-006
1623.600,1.123E-006
1624.000,1.122E-006
1624.400,1.124E-006
1624.800,1.125E-006
1625.200,1.019E-006
1625.600,1.197E-006
1626.000,1.184E-006
1626.400,1.142E-006
1626.800,1.208E-006
1627.200,1.140E-006
1627.600,1.147E-006
1628.000,1.123E-006
1628.400,1.219E-006
1628.800,1.143E-006
1629.200,1.228E-006
1629.600,1.259E-006
1630.000,1.132E-006
1630.400,1.176E-006
1630.800,1.116E-006
1631.200,1.135E-006
1631.600,1.134E-006
1632.000,1.056E-006
1632.400,1.077E-006
1632.800,1.065E-006
1633.200,1.116E-006
1633.600,1.160E-006
1634.000,1.139E-006
1634.400,1.098E-006
1634.800,1.108E-006
1635.200,1.086E-006
1635.600,1.103E-006
1636.000,1.178E-006
1636.400,1.107E-006
1636.800,1.116E-006
1637.200,1.123E-006
1637.600,1.239E-006
1638.000,1.190E-006
1638.400,1.256E-006
1638.800,1.151E-006
1639.200,1.229E-006
1639.600,1.189E-006
1640.000,1.245E-006
1640.400,1.180E-006
1640.800,1.124E-006
1641.200,1.163E-006
1641.600,1.185E-006
1642.000,1.127E-006
1642.400,1.219E-006
1642.800,1.105E-006
1643.200,1.197E-006
1643.600,1.189E-006
1644.000,1.179E-006
1644.400,1.122E-006
1644.800,1.114E-006
1645.200,1.133E-006
1645.600,1.106E-006
1646.000,1.114E-006
1646.400,1.096E-006
1646.800,1.155E-006
1647.200,1.077E-006
1647.600,1.126E-006
1648.000,1.081E-006
1648.400,1.101E-006
1648.800,1.066E-006
1649.200,1.224E-006
1649.600,1.187E-006
1650.000,1.250E-006
1650.400,1.203E-006
1650.800,1.173E-006
1651.200,1.139E-006
1651.600,1.184E-006
1652.000,1.114E-006
1652.400,1.068E-006
1652.800,1.058E-006
1653.200,1.045E-006
1653.600,1.006E-006
1654.000,1.127E-006
1654.400,1.192E-006
1654.800,1.133E-006
1655.200,1.237E-006
1655.600,1.173E-006
1656.000,1.099E-006
1656.400,1.164E-006
1656.800,1.100E-006
1657.200,1.169E-006
1657.600,1.252E-006
1658.000,1.135E-006
1658.400,1.143E-006
1658.800,1.084E-006
1659.200,1.150E-006
1659.600,1.060E-006
1660.000,1.155E-006
1660.400,1.171E-006
1660.800,1.052E-006
1661.200,1.029E-006
1661.600,1.087E-006
1662.000,1.027E-006
1662.400,1.144E-006
1662.800,1.143E-006
1663.200,1.218E-006
1663.600,1.081E-006
1664.000,1.182E-006
1664.400,1.127E-006
1664.800,1.138E-006
1665.200,1.045E-006
1665.600,1.119E-006
1666.000,1.058E-006
1666.400,1.092E-006
1666.800,1.084E-006
1667.200,1.088E-006
1667.600,1.172E-006
1668.000,1.151E-006
1668.400,1.159E-006
1668.800,1.150E-006
1669.200,1.171E-006
1669.600,1.148E-006
1670.000,1.165E-006
1670.400,1.149E-006
1670.800,1.092E-006
1671.200,1.191E-006
1671.600,1.114E-006
1672.000,1.037E-006
1672.400,1.090E-006
1672.800,1.087E-006
1673.200,1.201E-006
1673.600,1.112E-006
1674.000,1.093E-006
1674.400,1.088E-006
1674.800,1.128E-006
1675.200,1.068E-006
1675.600,1.056E-006
1676.000,9.930E-007
1676.400,1.002E-006
1676.800,1.008E-006
1677.200,1.003E-006
1677.600,1.015E-006
1678.000,1.030E-006
1678.400,1.035E-006
1678.800,1.154E-006
1679.200,1.181E-006
1679.600,1.044E-006
1680.000,1.080E-006
1680.400,1.143E-006
1680.800,1.085E-006
1681.200,1.191E-006
1681.600,1.153E-006
1682.000,1.123E-006
1682.400,1.201E-006
1682.800,1.136E-006
1683.200,1.087E-006
1683.600,1.118E-006
1684.000,1.127E-006
1684.400,1.108E-006
1684.800,1.093E-006
1685.200,1.187E-006
1685.600,1.034E-006
1686.000,1.181E-006
1686.400,1.146E-006
1686.800,1.046E-006
1687.200,1.129E-006
1687.600,1.066E-006
1688.000,1.168E-006
1688.400,1.160E-006
1688.800,1.097E-006
1689.200,1.048E-006
1689.600,1.138E-006
1690.000,1.080E-006
1690.400,1.106E-006
1690.800,1.030E-006
1691.200,1.047E-006
1691.600,1.056E-006
1692.000,1.163E-006
1692.400,1.080E-006
1692.800,1.097E-006
1693.200,1.008E-006
1693.600,1.052E-006
1694.000,1.147E-006
1694.400,1.183E-006
1694.800,1.131E-006
1695.200,1.022E-006
1695.600,1.090E-006
1696.000,1.125E-006
1696.400,1.059E-006
1696.800,1.161E-006
1697.200,1.032E-006
1697.600,1.020E-006
1698.000,1.133E-006
1698.400,1.077E-006
1698.800,1.119E-006
1699.200,1.082E-006
1699.600,9.707E-007
1700.000,1.127E-006
1700.400,1.175E-006
1700.800,1.014E-006
1701.200,1.064E-006
1701.600,1.160E-006
1702.000,1.167E-006
1702.400,1.145E-006
1702.800,1.181E-006
1703.200,1.097E-006
1703.600,1.179E-006
1704.000,1.183E-006
1704.400,1.121E-006
1704.800,1.102E-006
1705.200,1.075E-006
1705.600,1.025E-006
1706.000,1.034E-006
1706.400,1.053E-006
1706.800,1.055E-006
1707.200,1.013E-006
1707.600,1.030E-006
1708.000,9.988E-007
1708.400,1.049E-006
1708.800,1.137E-006
1709.200,1.037E-006
1709.600,9.200E-007
1710.000,9.951E-007
1710.400,1.029E-006
1710.800,1.079E-006
1711.200,9.600E-007
1711.600,1.167E-006
1712.000,1.117E-006
1712.400,1.084E-006
1712.800,1.097E-006
1713.200,1.057E-006
1713.600,1.075E-006
1714.000,1.060E-006
1714.400,1.013E-006
1714.800,9.593E-007
1715.200,9.822E-007
1715.600,1.026E-006
1716.000,9.155E-007
1716.400,1.001E-006
1716.800,1.069E-006
1717.200,1.006E-006
1717.600,9.891E-007
1718.000,1.015E-006
1718.400,1.031E-006
1718.800,1.057E-006
1719.200,1.090E-006
1719.600,9.344E-007
1720.000,1.034E-006
1720.400,9.450E-007
1720.800,1.033E-006
1721.200,1.024E-006
1721.600,1.058E-006
1722.000,1.093E-006
1722.400,9.822E-007
1722.800,1.023E-006
1723.200,9.368E-007
1723.600,9.641E-007
1724.000,9.477E-007
1724.400,9.530E-007
1724.800,1.021E-006
1725.200,1.017E-006
1725.600,1.012E-006
1726.000,1.012E-006
1726.400,1.047E-006
1726.800,1.035E-006
1727.200,1.059E-006
1727.600,1.028E-006
1728.000,9.968E-007
1728.400,1.003E-006
1728.800,9.524E-007
1729.200,9.328E-007
1729.600,9.483E-007
1730.000,9.347E-007
1730.400,9.910E-007
1730.800,9.975E-007
1731.200,1.070E-006
1731.600,9.443E-007
1732.000,8.606E-007
1732.400,9.653E-007
1732.800,9.706E-007
1733.200,1.034E-006
1733.600,1.058E-006
1734.000,9.906E-007
1734.400,9.646E-007
1734.800,9.994E-007
1735.200,1.001E-006
1735.600,9.719E-007
1736.000,9.312E-007
1736.400,9.863E-007
1736.800,9.025E-007
1737.200,9.239E-007
1737.600,8.349E-007
1738.000,9.780E-007
1738.400,9.872E-007
1738.800,9.868E-007
1739.200,9.433E-007
1739.600,9.699E-007
1740.000,9.346E-007
1740.400,8.778E-007
1740.800,8.211E-007
1741.200,9.611E-007
1741.600,8.189E-007
1742.000,8.112E-007
1742.400,8.236E-007
1742.800,9.098E-007
1743.200,9.922E-007
1743.600,9.266E-007
1744.000,9.627E-007
1744.400,9.962E-007
1744.800,9.217E-007
1745.200,9.405E-007
1745.600,1.094E-006
1746.000,9.476E-007
1746.400,1.016E-006
1746.800,9.878E-007
1747.200,1.012E-006
1747.600,9.549E-007
1748.000,9.964E-007
1748.400,9.863E-007
1748.800,9.401E-007
1749.200,9.644E-007
1749.600,9.298E-007
1750.000,8.184E-007
1750.400,8.998E-007
1750.800,8.890E-007
1751.200,9.077E-007
1751.600,8.712E-007
1752.000,1.000E-006
1752.400,1.091E-006
1752.800,1.074E-006
1753.200,1.035E-006
1753.600,1.058E-006
1754.000,1.018E-006
1754.400,1.008E-006
1754.800,9.453E-007
1755.200,9.353E-007
1755.600,9.425E-007
1756.000,9.631E-007
1756.400,9.388E-007
1756.800,1.038E-006
1757.200,9.076E-007
1757.600,8.525E-007
1758.000,8.992E-007
1758.400,9.878E-007
1758.800,9.648E-007
1759.200,9.363E-007
1759.600,9.770E-007
1760.000,9.865E-007
1760.400,1.040E-006
1760.800,1.023E-006
1761.200,9.740E-007
1761.600,9.493E-007
1762.000,9.900E-007
1762.400,1.040E-006
1762.800,1.038E-006
1763.200,9.986E-007
1763.600,1.024E-006
1764.000,9.617E-007
1764.400,1.034E-006
1764.800,9.646E-007
1765.200,9.590E-007
1765.600,9.700E-007
1766.000,9.616E-007
1766.400,9.292E-007
1766.800,8.770E-007
1767.200,9.555E-007
1767.600,9.889E-007
1768.000,9.378E-007
1768.400,8.567E-007
1768.800,9.735E-007
1769.200,9.463E-007
1769.600,1.025E-006
1770.000,9.349E-007
1770.400,8.266E-007
1770.800,9.432E-007
1771.200,9.062E-007
1771.600,8.776E-007
1772.000,8.235E-007
1772.400,8.697E-007
1772.800,9.483E-007
1773.200,8.793E-007
1773.600,9.503E-007
1774.000,9.020E-007
1774.400,8.912E-007
1774.800,9.345E-007
1775.200,8.575E-007
1775.600,8.967E-007
1776.000,8.319E-007
1776.400,9.659E-007
1776.800,8.479E-007
1777.200,8.582E-007
1777.600,9.403E-007
1778.000,9.596E-007
1778.400,8.720E-007
1778.800,8.575E-007
1779.200,8.449E-007
1779.600,8.410E-007
1780.000,8.338E-007
1780.400,8.626E-007
1780.800,9.279E-007
1781.200,9.791E-007
1781.600,9.092E-007
1782.000,9.568E-007
1782.400,8.938E-007
1782.800,8.487E-007
1783.200,8.366E-007
1783.600,8.023E-007
1784.000,8.473E-007
1784.400,7.950E-007
1784.800,8.641E-007
1785.200,9.714E-007
1785.600,9.941E-007
1786.000,9.717E-007
1786.400,9.965E-007
1786.800,9.534E-007
1787.200,8.389E-007
1787.600,8.978E-007
1788.000,8.465E-007
1788.400,9.610E-007
1788.800,9.267E-007
1789.200,9.429E-007
1789.600,9.883E-007
1790.000,1.046E-006
1790.400,9.475E-007
1790.800,9.402E-007
1791.200,8.791E-007
1791.600,8.313E-007
1792.000,8.660E-007
1792.400,8.272E-007
1792.800,7.989E-007
1793.200,8.934E-007
1793.600,8.272E-007
1794.000,8.441E-007
1794.400,9.001E-007
1794.800,8.569E-007
1795.200,7.865E-007
1795.600,8.003E-007
1796.000,8.729E-007
1796.400,9.112E-007
1796.800,8.772E-007
1797.200,9.038E-007
1797.600,9.355E-007
1798.000,8.463E-007
1798.400,8.364E-007
1798.800,8.197E-007
1799.200,7.552E-007
1799.600,7.959E-007
1800.000,8.984E-007
1800.400,8.601E-007
1800.800,8.559E-007
1801.200,9.001E-007
1801.600,8.054E-007
1802.000,8.873E-007
1802.400,8.323E-007
1802.800,8.487E-007
1803.200,9.740E-007
1803.600,9.154E-007
1804.000,8.577E-007
1804.400,8.483E-007
1804.800,7.540E-007
1805.200,8.520E-007
1805.600,9.316E-007
1806.000,8.038E-007
1806.400,8.481E-007
1806.800,8.764E-007
1807.200,7.973E-007
1807.600,8.295E-007
1808.000,8.928E-007
1808.400,8.472E-007
1808.800,8.314E-007
1809.200,8.272E-007
1809.600,7.608E-007
1810.000,7.748E-007
1810.400,8.471E-007
1810.800,8.489E-007
1811.200,8.191E-007
1811.600,7.545E-007
1812.000,8.187E-007
1812.400,7.766E-007
1812.800,8.184E-007
1813.200,8.677E-007
1813.600,8.535E-007
1814.000,8.447E-007
1814.400,8.243E-007
1814.800,7.848E-007
1815.200,8.159E-007
1815.600,8.031E-007
1816.000,7.508E-007
1816.400,7.289E-007
1816.800,7.962E-007
1817.200,7.730E-007
1817.600,8.646E-007
1818.000,7.607E-007
1818.400,8.181E-007
1818.800,7.529E-007
1819.200,7.451E-007
1819.600,7.689E-007
1820.000,7.390E-007
1820.400,7.484E-007
1820.800,7.103E-007
1821.200,8.620E-007
1821.600,7.824E-007
1822.000,8.861E-007
1822.400,8.517E-007
1822.800,7.852E-007
1823.200,7.548E-007
1823.600,7.597E-007
1824.000,8.342E-007
1824.400,8.163E-007
1824.800,7.604E-007
1825.200,6.836E-007
1825.600,7.350E-007
1826.000,7.870E-007
1826.400,7.822E-007
1826.800,8.396E-007
1827.200,7.614E-007
1827.600,7.935E-007
1828.000,7.823E-007
1828.400,7.378E-007
1828.800,7.525E-007
1829.200,7.327E-007
1829.600,6.282E-007
1830.000,7.653E-007
1830.400,7.404E-007
1830.800,8.806E-007
1831.200,8.184E-007
1831.600,8.353E-007
1832.000,8.437E-007
1832.400,7.846E-007
1832.800,8.334E-007
1833.200,7.931E-007
1833.600,8.001E-007
1834.000,7.626E-007
1834.400,7.585E-007
1834.800,7.375E-007
1835.200,6.788E-007
1835.600,6.687E-007
1836.000,6.516E-007
1836.400,6.906E-007
1836.800,5.917E-007
1837.200,6.146E-007
1837.600,7.384E-007
1838.000,6.990E-007
1838.400,6.741E-007
1838.800,7.007E-007
1839.200,6.956E-007
1839.600,7.436E-007
1840.000,6.800E-007
1840.400,6.827E-007
1840.800,6.608E-007
1841.200,6.766E-007
1841.600,5.987E-007
1842.000,6.387E-007
1842.400,6.471E-007
1842.800,7.642E-007
1843.200,7.942E-007
1843.600,8.125E-007
1844.000,8.550E-007
1844.400,8.406E-007
1844.800,8.558E-007
1845.200,7.813E-007
1845.600,7.475E-007
1846.000,7.035E-007
1846.400,6.425E-007
1846.800,6.462E-007
1847.200,6.247E-007
1847.600,5.939E-007
1848.000,6.659E-007
1848.400,7.673E-007
1848.800,7.362E-007
1849.200,8.369E-007
1849.600,8.359E-007
1850.000,8.304E-007
1850.400,8.335E-007
1850.800,9.247E-007
1851.200,8.038E-007
1851.600,8.297E-007
1852.000,8.434E-007
1852.400,7.356E-007
1852.800,7.349E-007
1853.200,6.876E-007
1853.600,6.905E-007
1854.000,7.953E-007
1854.400,7.897E-007
1854.800,7.117E-007
1855.200,7.792E-007
1855.600,7.833E-007
1856.000,7.780E-007
1856.400,6.692E-007
1856.800,7.103E-007
1857.200,7.020E-007
1857.600,7.362E-007
1858.000,7.247E-007
1858.400,6.771E-007
1858.800,7.266E-007
1859.200,7.444E-007
1859.600,7.243E-007
1860.000,6.487E-007
1860.400,6.709E-007
1860.800,7.178E-007
1861.200,8.703E-007
1861.600,7.887E-007
1862.000,8.475E-007
1862.400,8.075E-007
1862.800,8.358E-007
1863.200,7.817E-007
1863.600,8.038E-007
1864.000,7.612E-007
1864.400,8.348E-007
1864.800,7.755E-007
1865.200,8.030E-007
1865.600,8.827E-007
1866.000,7.754E-007
1866.400,6.093E-007
1866.800,6.692E-007
1867.200,6.557E-007
1867.600,5.744E-007
1868.000,6.054E-007
1868.400,6.338E-007
1868.800,7.192E-007
1869.200,6.691E-007
1869.600,5.452E-007
1870.000,4.959E-007
1870.400,5.963E-007
1870.800,5.624E-007
1871.200,4.957E-007
1871.600,5.612E-007
1872.000,6.109E-007
1872.400,5.662E-007
1872.800,5.589E-007
1873.200,5.745E-007
1873.600,6.710E-007
1874.000,6.356E-007
1874.400,6.574E-007
1874.800,6.454E-007
1875.200,5.532E-007
1875.600,5.621E-007
1876.000,5.265E-007
1876.400,6.062E-007
1876.800,6.605E-007
1877.200,7.066E-007
1877.600,7.559E-007
1878.000,7.398E-007
1878.400,7.621E-007
1878.800,7.018E-007
1879.200,7.465E-007
1879.600,8.313E-007
1880.000,6.902E-007
1880.400,6.266E-007
1880.800,6.658E-007
1881.200,6.898E-007
1881.600,7.587E-007
1882.000,7.482E-007
1882.400,6.978E-007
1882.800,6.777E-007
1883.200,7.546E-007
1883.600,7.747E-007
1884.000,6.991E-007
1884.400,6.329E-007
1884.800,7.037E-007
1885.200,7.767E-007
1885.600,7.014E-007
1886.000,6.772E-007
1886.400,7.249E-007
1886.800,6.994E-007
1887.200,7.064E-007
1887.600,7.432E-007
1888.000,7.607E-007
1888.400,7.482E-007
1888.800,5.791E-007
1889.200,6.896E-007
1889.600,7.011E-007
1890.000,6.223E-007
1890.400,7.649E-007
1890.800,6.998E-007
1891.200,6.953E-007
1891.600,6.589E-007
1892.000,7.265E-007
1892.400,6.678E-007
1892.800,6.617E-007
1893.200,6.777E-007
1893.600,6.569E-007
1894.000,6.964E-007
1894.400,7.026E-007
1894.800,7.156E-007
1895.200,7.365E-007
1895.600,6.870E-007
1896.000,7.747E-007
1896.400,7.114E-007
1896.800,7.244E-007
1897.200,7.157E-007
1897.600,6.741E-007
1898.000,7.032E-007
1898.400,6.730E-007
1898.800,5.756E-007
1899.200,5.825E-007
1899.600,6.372E-007
1900.000,5.599E-007
1900.400,6.230E-007
1900.800,6.502E-007
1901.200,6.626E-007
1901.600,6.732E-007
1902.000,6.232E-007
1902.400,7.419E-007
1902.800,6.447E-007
1903.200,6.350E-007
1903.600,6.758E-007
1904.000,6.184E-007
1904.400,6.035E-007
1904.800,6.376E-007
1905.200,4.728E-007
1905.600,5.065E-007
1906.000,4.972E-007
1906.400,5.239E-007
1906.800,5.878E-007
1907.200,6.274E-007
1907.600,6.616E-007
1908.000,6.787E-007
1908.400,6.980E-007
1908.800,6.791E-007
1909.200,7.656E-007
1909.600,6.655E-007
1910.000,6.829E-007
1910.400,6.046E-007
1910.800,6.356E-007
1911.200,6.813E-007
1911.600,6.529E-007
1912.000,6.054E-007
1912.400,5.837E-007
1912.800,6.163E-007
1913.200,6.494E-007
1913.600,6.228E-007
1914.000,6.177E-007
1914.400,6.665E-007
1914.800,7.290E-007
1915.200,6.439E-007
1915.600,6.672E-007
1916.000,6.722E-007
1916.400,6.488E-007
1916.800,6.349E-007
1917.200,7.192E-007
1917.600,6.749E-007
1918.000,6.720E-007
1918.400,6.313E-007
1918.800,5.834E-007
1919.200,6.236E-007
1919.600,5.827E-007
1920.000,5.611E-007
1920.400,5.825E-007
1920.800,5.713E-007
1921.200,6.735E-007
1921.600,7.007E-007
1922.000,6.999E-007
1922.400,6.132E-007
1922.800,6.394E-007
1923.200,6.639E-007
1923.600,5.994E-007
1924.000,6.472E-007
1924.400,6.853E-007
1924.800,6.633E-007
1925.200,8.274E-007
1925.600,7.367E-007
1926.000,7.720E-007
1926.400,7.870E-007
1926.800,7.328E-007
1927.200,6.134E-007
1927.600,6.710E-007
1928.000,5.642E-007
1928.400,5.411E-007
1928.800,6.183E-007
1929.200,5.991E-007
1929.600,5.995E-007
1930.000,6.795E-007
1930.400,5.303E-007
1930.800,6.613E-007
1931.200,6.665E-007
1931.600,6.208E-007
1932.000,6.658E-007
1932.400,7.097E-007
1932.800,6.730E-007
1933.200,7.282E-007
1933.600,7.167E-007
1934.000,6.728E-007
1934.400,6.646E-007
1934.800,7.424E-007
1935.200,6.432E-007
1935.600,5.429E-007
1936.000,6.286E-007
1936.400,6.748E-007
1936.800,6.599E-007
1937.200,5.323E-007
1937.600,6.724E-007
1938.000,6.984E-007
1938.400,6.596E-007
1938.800,6.888E-007
1939.200,6.987E-007
1939.600,6.954E-007
1940.000,6.730E-007
1940.400,7.328E-007
1940.800,6.534E-007
1941.200,7.373E-007
1941.600,7.592E-007
1942.000,6.616E-007
1942.400,6.802E-007
1942.800,7.539E-007
1943.200,7.152E-007
1943.600,7.057E-007
1944.000,6.837E-007
1944.400,6.763E-007
1944.800,5.966E-007
1945.200,6.437E-007
1945.600,5.862E-007
1946.000,6.697E-007
1946.400,7.152E-007
1946.800,6.042E-007
1947.200,6.215E-007
1947.600,6.350E-007
1948.000,6.654E-007
1948.400,7.541E-007
1948.800,7.064E-007
1949.200,6.729E-007
1949.600,6.096E-007
1950.000,6.731E-007
1950.400,6.877E-007
1950.800,6.373E-007
1951.200,6.900E-007
1951.600,6.749E-007
1952.000,6.850E-007
1952.400,6.688E-007
1952.800,5.764E-007
1953.200,6.091E-007
1953.600,6.496E-007
1954.000,6.873E-007
1954.400,6.923E-007
1954.800,7.276E-007
1955.200,6.475E-007
1955.600,7.375E-007
1956.000,6.732E-007
1956.400,7.409E-007
1956.800,7.074E-007
1957.200,6.681E-007
1957.600,6.722E-007
1958.000,6.299E-007
1958.400,5.435E-007
1958.800,5.818E-007
1959.200,6.671E-007
1959.600,6.389E-007
1960.000,6.809E-007
1960.400,6.897E-007
1960.800,7.873E-007
1961.200,6.610E-007
1961.600,6.456E-007
1962.000,6.404E-007
1962.400,6.517E-007
1962.800,7.166E-007
1963.200,6.861E-007
1963.600,7.237E-007
1964.000,7.726E-007
1964.400,7.626E-007
1964.800,6.473E-007
1965.200,6.255E-007
1965.600,6.583E-007
1966.000,6.809E-007
1966.400,7.237E-007
1966.800,6.995E-007
1967.200,8.069E-007
1967.600,6.863E-007
1968.000,7.462E-007
1968.400,7.008E-007
1968.800,6.996E-007
1969.200,7.033E-007
1969.600,7.281E-007
1970.000,6.368E-007
1970.400,6.681E-007
1970.800,6.536E-007
1971.200,6.133E-007
1971.600,5.961E-007
1972.000,6.020E-007
1972.400,6.844E-007
1972.800,5.494E-007
1973.200,6.331E-007
1973.600,5.678E-007
1974.000,6.519E-007
1974.400,6.019E-007
1974.800,6.899E-007
1975.200,7.085E-007
1975.600,7.060E-007
1976.000,6.511E-007
1976.400,7.008E-007
1976.800,6.545E-007
1977.200,7.376E-007
1977.600,6.460E-007
1978.000,6.359E-007
1978.400,7.441E-007
1978.800,7.334E-007
1979.200,6.180E-007
1979.600,6.759E-007
1980.000,6.039E-007
1980.400,6.786E-007
1980.800,6.747E-007
1981.200,6.893E-007
1981.600,6.182E-007
1982.000,7.178E-007
1982.400,6.462E-007
1982.800,6.323E-007
1983.200,5.945E-007
1983.600,5.848E-007
1984.000,6.042E-007
1984.400,6.101E-007
1984.800,6.196E-007
1985.200,6.482E-007
1985.600,5.874E-007
1986.000,6.803E-007
1986.400,6.597E-007
1986.800,7.036E-007
1987.200,6.680E-007
1987.600,6.535E-007
1988.000,7.754E-007
1988.400,7.038E-007
1988.800,6.347E-007
1989.200,6.334E-007
1989.600,6.681E-007
1990.000,6.433E-007
1990.400,6.633E-007
1990.800,5.968E-007
1991.200,6.419E-007
1991.600,6.322E-007
1992.000,6.945E-007
1992.400,6.331E-007
1992.800,6.703E-007
1993.200,5.901E-007
1993.600,5.897E-007
1994.000,6.387E-007
1994.400,6.417E-007
1994.800,7.037E-007
1995.200,6.812E-007
1995.600,7.181E-007
1996.000,6.981E-007
1996.400,6.763E-007
1996.800,6.621E-007
1997.200,7.034E-007
1997.600,5.964E-007
1998.000,6.862E-007
1998.400,6.723E-007
1998.800,5.698E-007
1999.200,6.970E-007
1999.600,7.037E-007
2000.000,7.061E-007
2000.400,7.948E-007
2000.800,7.267E-007
2001.200,7.884E-007
2001.600,7.105E-007
2002.000,6.444E-007
2002.400,6.425E-007
2002.800,7.280E-007
2003.200,5.765E-007
2003.600,6.637E-007
2004.000,7.292E-007
2004.400,7.606E-007
2004.800,6.703E-007
2005.200,6.514E-007
2005.600,6.969E-007
2006.000,6.791E-007
2006.400,6.132E-007
2006.800,6.595E-007
2007.200,6.413E-007
2007.600,7.509E-007
2008.000,6.895E-007
2008.400,6.803E-007
2008.800,7.488E-007
2009.200,7.005E-007
2009.600,6.957E-007
2010.000,6.968E-007
2010.400,7.070E-007
2010.800,6.446E-007
2011.200,7.188E-007
2011.600,6.825E-007
2012.000,8.242E-007
2012.400,7.872E-007
2012.800,8.213E-007
2013.200,7.776E-007
2013.600,8.332E-007
2014.000,7.054E-007
2014.400,6.868E-007
2014.800,7.544E-007
2015.200,6.816E-007
2015.600,6.782E-007
2016.000,7.503E-007
2016.400,7.194E-007
2016.800,7.426E-007
2017.200,6.837E-007
2017.600,7.326E-007
2018.000,6.834E-007
2018.400,6.917E-007
2018.800,7.248E-007
2019.200,6.778E-007
2019.600,6.956E-007
2020.000,6.977E-007
2020.400,7.630E-007
2020.800,7.201E-007
2021.200,7.431E-007
2021.600,7.947E-007
2022.000,7.941E-007
2022.400,7.973E-007
2022.800,6.912E-007
2023.200,6.301E-007
2023.600,7.524E-007
2024.000,5.945E-007
2024.400,6.248E-007
2024.800,5.887E-007
2025.200,6.445E-007
2025.600,6.465E-007
2026.000,6.523E-007
2026.400,6.351E-007
2026.800,7.083E-007
2027.200,5.516E-007
2027.600,7.138E-007
2028.000,7.526E-007
2028.400,6.221E-007
2028.800,6.913E-007
2029.200,6.753E-007
2029.600,6.188E-007
2030.000,5.800E-007
2030.400,6.487E-007
2030.800,6.393E-007
2031.200,6.848E-007
2031.600,6.872E-007
2032.000,6.729E-007
2032.400,5.842E-007
2032.800,6.563E-007
2033.200,6.613E-007
2033.600,6.748E-007
2034.000,6.580E-007
2034.400,6.700E-007
2034.800,7.905E-007
2035.200,7.255E-007
2035.600,6.265E-007
2036.000,6.465E-007
2036.400,7.258E-007
2036.800,6.827E-007
2037.200,7.311E-007
2037.600,7.056E-007
2038.000,6.337E-007
2038.400,6.254E-007
2038.800,6.739E-007
2039.200,5.780E-007
2039.600,6.026E-007
2040.000,6.314E-007
2040.400,4.895E-007
2040.800,5.464E-007
2041.200,5.054E-007
2041.600,6.034E-007
2042.000,5.183E-007
2042.400,5.260E-007
2042.800,5.235E-007
2043.200,5.348E-007
2043.600,5.374E-007
2044.000,5.872E-007
2044.400,6.740E-007
2044.800,6.450E-007
2045.200,6.378E-007
2045.600,6.803E-007
2046.000,6.107E-007
2046.400,5.741E-007
2046.800,5.589E-007
2047.200,6.247E-007
2047.600,6.535E-007
2048.000,5.374E-007
2048.400,6.419E-007
2048.800,5.541E-007
2049.200,6.757E-007
2049.600,5.277E-007
2050.000,6.019E-007
2050.400,5.645E-007
2050.800,6.054E-007
2051.200,5.435E-007
2051.600,6.167E-007
2052.000,5.843E-007
2052.400,4.951E-007
2052.800,5.498E-007
2053.200,4.957E-007
2053.600,5.014E-007
2054.000,5.047E-007
2054.400,6.469E-007
2054.800,5.075E-007
2055.200,5.541E-007
2055.600,5.582E-007
2056.000,5.827E-007
2056.400,4.880E-007
2056.800,5.334E-007
2057.200,5.420E-007
2057.600,6.130E-007
2058.000,5.618E-007
2058.400,6.017E-007
2058.800,6.484E-007
2059.200,6.513E-007
2059.600,6.834E-007
2060.000,5.704E-007
2060.400,6.527E-007
2060.800,5.786E-007
2061.200,6.279E-007
2061.600,6.322E-007
2062.000,7.643E-007
2062.400,6.292E-007
2062.800,6.940E-007
2063.200,7.120E-007
2063.600,7.092E-007
2064.000,6.857E-007
2064.400,6.612E-007
2064.800,6.316E-007
2065.200,6.532E-007
2065.600,5.828E-007
2066.000,6.545E-007
2066.400,5.875E-007
2066.800,6.240E-007
2067.200,5.453E-007
2067.600,6.388E-007
2068.000,6.910E-007
2068.400,6.909E-007
2068.800,6.241E-007
2069.200,7.102E-007
2069.600,6.627E-007
2070.000,7.032E-007
2070.400,6.693E-007
2070.800,6.068E-007
2071.200,5.698E-007
2071.600,5.543E-007
2072.000,6.211E-007
2072.400,6.284E-007
2072.800,5.562E-007
2073.200,6.366E-007
2073.600,5.323E-007
2074.000,6.113E-007
2074.400,6.643E-007
2074.800,7.258E-007
2075.200,6.564E-007
2075.600,7.087E-007
2076.000,5.873E-007
2076.400,6.350E-007
2076.800,6.926E-007
2077.200,6.406E-007
2077.600,5.734E-007
2078.000,6.405E-007
2078.400,5.785E-007
2078.800,5.398E-007
2079.200,6.449E-007
2079.600,6.842E-007
2080.000,6.137E-007
2080.400,7.115E-007
2080.800,6.665E-007
2081.200,6.394E-007
2081.600,6.398E-007
2082.000,6.746E-007
2082.400,6.053E-007
2082.800,5.750E-007
2083.200,6.844E-007
2083.600,6.285E-007
2084.000,6.956E-007
2084.400,7.161E-007
2084.800,6.332E-007
2085.200,5.172E-007
2085.600,6.595E-007
2086.000,6.080E-007
2086.400,5.804E-007
2086.800,5.700E-007
2087.200,5.935E-007
2087.600,5.571E-007
2088.000,6.480E-007
2088.400,6.137E-007
2088.800,6.538E-007
2089.200,5.992E-007
2089.600,6.461E-007
2090.000,5.907E-007
2090.400,6.003E-007
2090.800,5.311E-007
2091.200,4.377E-007
2091.600,4.856E-007
2092.000,5.163E-007
2092.400,5.266E-007
2092.800,4.729E-007
2093.200,5.213E-007
2093.600,5.488E-007
2094.000,5.707E-007
2094.400,5.395E-007
2094.800,6.473E-007
2095.200,6.232E-007
2095.600,5.549E-007
2096.000,5.690E-007
2096.400,4.667E-007
2096.800,5.752E-007
2097.200,6.201E-007
2097.600,5.169E-007
2098.000,5.548E-007
2098.400,6.427E-007
2098.800,6.966E-007
2099.200,5.539E-007
2099.600,5.718E-007
2100.000,6.329E-007
2100.400,6.111E-007
2100.800,5.651E-007
2101.200,5.917E-007
2101.600,6.300E-007
2102.000,5.910E-007
2102.400,5.848E-007
2102.800,4.924E-007
2103.200,5.739E-007
2103.600,4.287E-007
2104.000,5.232E-007
2104.400,4.956E-007
2104.800,5.273E-007
2105.200,5.378E-007
2105.600,5.305E-007
2106.000,5.368E-007
2106.400,6.120E-007
2106.800,4.471E-007
2107.200,5.735E-007
2107.600,6.024E-007
2108.000,5.610E-007
2108.400,5.475E-007
2108.800,4.863E-007
2109.200,5.231E-007
2109.600,4.298E-007
2110.000,4.711E-007
2110.400,5.587E-007
2110.800,4.686E-007
2111.200,5.786E-007
2111.600,4.971E-007
2112.000,5.590E-007
2112.400,5.995E-007
2112.800,5.595E-007
2113.200,5.403E-007
2113.600,5.400E-007
2114.000,5.018E-007
2114.400,5.450E-007
2114.800,5.471E-007
2115.200,4.617E-007
2115.600,3.949E-007
2116.000,4.845E-007
2116.400,4.599E-007
2116.800,5.467E-007
2117.200,5.438E-007
2117.600,6.746E-007
2118.000,6.138E-007
2118.400,6.363E-007
2118.800,6.061E-007
2119.200,4.862E-007
2119.600,4.704E-007
2120.000,5.546E-007
2120.400,5.476E-007
2120.800,5.634E-007
2121.200,5.066E-007
2121.600,5.650E-007
2122.000,5.970E-007
2122.400,5.628E-007
2122.800,5.693E-007
2123.200,5.917E-007
2123.600,5.662E-007
2124.000,5.625E-007
2124.400,5.633E-007
2124.800,6.483E-007
2125.200,5.976E-007
2125.600,5.379E-007
2126.000,6.213E-007
2126.400,5.787E-007
2126.800,7.178E-007
2127.200,5.813E-007
2127.600,5.471E-007
2128.000,4.846E-007
2128.400,5.697E-007
2128.800,5.925E-007
2129.200,5.991E-007
2129.600,5.485E-007
2130.000,4.988E-007
2130.400,5.406E-007
2130.800,5.622E-007
2131.200,5.090E-007
2131.600,6.184E-007
2132.000,5.773E-007
2132.400,5.855E-007
2132.800,5.505E-007
2133.200,5.368E-007
2133.600,4.552E-007
2134.000,5.304E-007
2134.400,5.068E-007
2134.800,5.248E-007
2135.200,5.016E-007
2135.600,4.828E-007
2136.000,5.876E-007
2136.400,6.052E-007
2136.800,5.752E-007
2137.200,5.580E-007
2137.600,5.749E-007
2138.000,5.081E-007
2138.400,5.583E-007
2138.800,5.895E-007
2139.200,4.866E-007
2139.600,5.093E-007
2140.000,5.778E-007
2140.400,5.079E-007
2140.800,4.787E-007
2141.200,5.689E-007
2141.600,5.563E-007
2142.000,5.215E-007
2142.400,4.527E-007
2142.800,5.109E-007
2143.200,5.038E-007
2143.600,5.528E-007
2144.000,5.292E-007
2144.400,6.011E-007
2144.800,5.383E-007
2145.200,5.252E-007
2145.600,5.869E-007
2146.000,4.906E-007
2146.400,4.794E-007
2146.800,4.947E-007
2147.200,4.655E-007
2147.600,4.721E-007
2148.000,4.610E-007
2148.400,4.227E-007
2148.800,4.720E-007
2149.200,4.897E-007
2149.600,4.449E-007
2150.000,4.646E-007
2150.400,4.679E-007
2150.800,4.829E-007
2151.200,4.594E-007
2151.600,5.216E-007
2152.000,4.721E-007
2152.400,4.137E-007
2152.800,4.725E-007
2153.200,4.318E-007
2153.600,5.182E-007
2154.000,5.257E-007
2154.400,5.446E-007
2154.800,4.202E-007
2155.200,4.093E-007
2155.600,5.065E-007
2156.000,4.859E-007
2156.400,4.485E-007
2156.800,4.474E-007
2157.200,5.035E-007
2157.600,5.020E-007
2158.000,4.845E-007
2158.400,5.071E-007
2158.800,5.258E-007
2159.200,5.662E-007
2159.600,5.546E-007
2160.000,4.987E-007
2160.400,4.786E-007
2160.800,4.875E-007
2161.200,4.812E-007
2161.600,4.663E-007
2162.000,5.150E-007
2162.400,4.219E-007
2162.800,4.800E-007
2163.200,5.321E-007
2163.600,4.760E-007
2164.000,4.573E-007
2164.400,3.706E-007
2164.800,4.021E-007
2165.200,4.259E-007
2165.600,3.888E-007
2166.000,4.437E-007
2166.400,4.310E-007
2166.800,4.875E-007
2167.200,4.761E-007
2167.600,4.583E-007
2168.000,3.977E-007
2168.400,4.492E-007
2168.800,4.104E-007
2169.200,4.475E-007
2169.600,5.034E-007
2170.000,4.170E-007
2170.400,3.974E-007
2170.800,5.306E-007
2171.200,4.545E-007
2171.600,3.705E-007
2172.000,3.701E-007
2172.400,4.336E-007
2172.800,5.074E-007
2173.200,4.605E-007
2173.600,4.337E-007
2174.000,5.304E-007
2174.400,5.347E-007
2174.800,4.651E-007
2175.200,4.331E-007
2175.600,3.429E-007
2176.000,4.475E-007
2176.400,3.052E-007
2176.800,3.352E-007
2177.200,5.084E-007
2177.600,4.802E-007
2178.000,4.511E-007
2178.400,4.562E-007
2178.800,5.346E-007
2179.200,4.726E-007
2179.600,4.459E-007
2180.000,4.350E-007
2180.400,5.161E-007
2180.800,4.365E-007
2181.200,4.886E-007
2181.600,4.250E-007
2182.000,4.639E-007
2182.400,4.314E-007
2182.800,4.592E-007
2183.200,3.799E-007
2183.600,4.615E-007
2184.000,3.582E-007
2184.400,4.223E-007
2184.800,3.620E-007
2185.200,3.342E-007
2185.600,3.117E-007
2186.000,3.909E-007
2186.400,3.283E-007
2186.800,3.715E-007
2187.200,3.374E-007
2187.600,3.851E-007
2188.000,3.859E-007
2188.400,4.883E-007
2188.800,4.249E-007
2189.200,4.929E-007
2189.600,5.593E-007
2190.000,5.049E-007
2190.400,4.691E-007
2190.800,4.191E-007
2191.200,5.019E-007
2191.600,4.671E-007
2192.000,3.963E-007
2192.400,4.302E-007
2192.800,3.734E-007
2193.200,3.279E-007
2193.600,4.492E-007
2194.000,4.513E-007
2194.400,4.892E-007
2194.800,4.587E-007
2195.200,4.646E-007
2195.600,3.965E-007
2196.000,3.717E-007
2196.400,4.201E-007
2196.800,3.729E-007
2197.200,3.421E-007
2197.600,4.173E-007
2198.000,4.553E-007
2198.400,4.757E-007
2198.800,4.634E-007
2199.200,5.026E-007
2199.600,4.538E-007
2200.000,4.265E-007
